timestamps,TP9,AF7,AF8,TP10,Subject,Emotion
-0.024249427,-0.172544151,-0.042705824,0.082514361,0.054663264,Subject A,Focused
-0.024155732,-0.114980677,0.022729646,0.092195264,0.070126347,Subject A,Focused
-0.0240892,0.098021637,0.090712121,0.091573685,0.221379275,Subject A,Focused
-0.024082622,0.208827123,0.12941344,0.07537893,0.41027688,Subject A,Focused
-0.02411792,0.161004081,0.130762567,0.052553998,0.495468611,Subject A,Focused
-0.024154703,0.137239158,0.116195686,0.036353178,0.422546446,Subject A,Focused
-0.024171237,0.241460469,0.107191583,0.030286892,0.25304201,Subject A,Focused
-0.024173902,0.296178562,0.09686849,0.027114957,0.098339855,Subject A,Focused
-0.024177201,0.064928697,0.061521145,0.019656373,0.038947006,Subject A,Focused
-0.024185423,-0.384083587,-0.001869479,0.009723987,0.089981831,Subject A,Focused
-0.02419302,-0.6809345,-0.063191896,0.006752207,0.21153646,Subject A,Focused
-0.02419478,-0.572681047,-0.090634739,0.018573285,0.330858466,Subject A,Focused
-0.024191021,-0.246334885,-0.084979507,0.042364916,0.365977073,Subject A,Focused
-0.02418477,-0.120428208,-0.070182057,0.063372116,0.268034776,Subject A,Focused
-0.024177432,-0.33156157,-0.052930193,0.064233008,0.072476337,Subject A,Focused
-0.024168081,-0.563240551,-0.009430746,0.039940752,-0.102502012,Subject A,Focused
-0.024155468,-0.459401601,0.076668927,0.006362463,-0.145717428,Subject A,Focused
-0.024139447,-0.103123837,0.174776843,-0.009023197,-0.054219025,Subject A,Focused
-0.024120632,0.076597414,0.225815773,0.008689033,0.075628683,Subject A,Focused
-0.024099421,-0.130628147,0.20354551,0.044457669,0.163360871,Subject A,Focused
-0.024075683,-0.424504376,0.144319736,0.064325526,0.217311751,Subject A,Focused
-0.024049128,-0.380235976,0.109495919,0.048079838,0.272152346,Subject A,Focused
-0.024019674,-0.016156242,0.127034056,0.009471225,0.294810583,Subject A,Focused
-0.023987432,0.213151235,0.174708799,-0.018804391,0.214917694,Subject A,Focused
-0.023952502,0.004692199,0.208881972,-0.017566818,0.052233807,Subject A,Focused
-0.023914871,-0.387495732,0.199444517,0.005334247,-0.049425629,Subject A,Focused
-0.023874472,-0.463160945,0.146830107,0.029878046,0.031251375,Subject A,Focused
-0.023831272,-0.107857012,0.082142005,0.042792193,0.227715516,Subject A,Focused
-0.023785284,0.264430896,0.04943442,0.040292558,0.322045749,Subject A,Focused
-0.023736527,0.234135931,0.071323408,0.022749343,0.172254577,Subject A,Focused
-0.023684998,-0.112881113,0.124976174,-0.003869807,-0.124761432,Subject A,Focused
-0.023630676,-0.329335439,0.160348212,-0.02524144,-0.332445161,Subject A,Focused
-0.023573547,-0.191012102,0.147372355,-0.028003513,-0.326954074,Subject A,Focused
-0.023513607,0.042919476,0.09904968,-0.013962436,-0.208312373,Subject A,Focused
-0.023450856,0.004853608,0.045433891,0.001992119,-0.146306643,Subject A,Focused
-0.023385289,-0.289614304,-0.003957281,0.011025443,-0.160706677,Subject A,Focused
-0.023316897,-0.474641817,-0.060151675,0.020446963,-0.115110372,Subject A,Focused
-0.023245672,-0.325084235,-0.121834779,0.038229534,0.065393486,Subject A,Focused
-0.02317161,-0.048246933,-0.159838797,0.052350242,0.236454133,Subject A,Focused
-0.023094706,-0.003049305,-0.146531542,0.03739654,0.165336011,Subject A,Focused
-0.023014958,-0.232126227,-0.095837587,-0.013750598,-0.183090457,Subject A,Focused
-0.022932359,-0.423474089,-0.058551008,-0.072764128,-0.560650514,Subject A,Focused
-0.022846905,-0.335249295,-0.068307166,-0.09947978,-0.678679366,Subject A,Focused
-0.022758593,-0.107919526,-0.098133296,-0.081348448,-0.499183196,Subject A,Focused
-0.022667418,-0.05478934,-0.085284036,-0.042363688,-0.234390567,Subject A,Focused
-0.022573378,-0.226077558,-0.005532387,-0.013326757,-0.081194843,Subject A,Focused
-0.022476468,-0.339722629,0.088709204,-0.002368828,-0.027530359,Subject A,Focused
-0.022376686,-0.172868047,0.120610512,0.001154701,0.057890189,Subject A,Focused
-0.022274026,0.117383908,0.078012776,0.003047227,0.203924979,Subject A,Focused
-0.022168486,0.187565923,0.032346151,-0.003181736,0.274785339,Subject A,Focused
-0.022060061,-0.032299542,0.06007521,-0.020618853,0.136982633,Subject A,Focused
-0.021948746,-0.231578313,0.15933661,-0.037593616,-0.163688817,Subject A,Focused
-0.021834537,-0.122923093,0.258741477,-0.039440128,-0.441760755,Subject A,Focused
-0.021717429,0.172622942,0.297414493,-0.026710379,-0.575632572,Subject A,Focused
-0.021597416,0.277797335,0.273173254,-0.013695891,-0.61037963,Subject A,Focused
-0.021474495,0.056872474,0.214554057,-0.009081813,-0.638080019,Subject A,Focused
-0.02134866,-0.196820774,0.138402647,-0.005126849,-0.64411919,Subject A,Focused
-0.021219908,-0.133931842,0.056096047,0.009452416,-0.545715528,Subject A,Focused
-0.021088233,0.201940335,0.000525933,0.028983506,-0.359830904,Subject A,Focused
-0.020953629,0.426329779,0.010028485,0.030948784,-0.244373724,Subject A,Focused
-0.020816091,0.290230092,0.078521114,0.001532534,-0.330738107,Subject A,Focused
-0.020675611,-0.027339258,0.146917467,-0.041994568,-0.551397542,Subject A,Focused
-0.020532181,-0.160835257,0.162464008,-0.062101206,-0.682074694,Subject A,Focused
-0.020385792,-0.006501814,0.134524051,-0.037315012,-0.56253573,Subject A,Focused
-0.020236436,0.183073482,0.112299733,0.01614827,-0.253261607,Subject A,Focused
-0.020084099,0.148481992,0.11435057,0.061783751,0.038683246,Subject A,Focused
-0.019928772,-0.050415531,0.106283157,0.07769795,0.167140032,Subject A,Focused
-0.019770439,-0.1473481,0.055285293,0.069803511,0.149510132,Subject A,Focused
-0.019609089,-0.051600751,-0.016938798,0.054651127,0.078855578,Subject A,Focused
-0.019444704,0.028609038,-0.056221557,0.038866867,0.001109553,Subject A,Focused
-0.019277271,-0.10620439,-0.040394758,0.018621842,-0.081599623,Subject A,Focused
-0.019106775,-0.340473075,-0.000275117,-0.00752957,-0.13522626,Subject A,Focused
-0.0189332,-0.384013115,0.022255282,-0.03240393,-0.101715863,Subject A,Focused
-0.018756536,-0.178378934,0.018393115,-0.045969447,0.006579201,Subject A,Focused
-0.018576768,0.005507208,0.009927238,-0.043455441,0.081582848,Subject A,Focused
-0.018393888,-0.062929325,0.016533089,-0.028136938,0.036528715,Subject A,Focused
-0.018207886,-0.237913075,0.034988837,-0.009013586,-0.068802028,Subject A,Focused
-0.018018752,-0.17238851,0.046538862,0.004490372,-0.07025679,Subject A,Focused
-0.017826481,0.205691041,0.038745144,0.008393067,0.109618505,Subject A,Focused
-0.017631064,0.544448077,0.019084506,0.006329391,0.33910163,Subject A,Focused
-0.017432498,0.464914708,0.006902395,0.005603278,0.389225446,Subject A,Focused
-0.017230776,0.022242637,0.012691657,0.010202843,0.17559042,Subject A,Focused
-0.017025895,-0.341376292,0.029398189,0.016628618,-0.143431363,Subject A,Focused
-0.016817853,-0.300682611,0.045280607,0.016314946,-0.327517198,Subject A,Focused
-0.016606649,-0.000563484,0.057459684,0.003493671,-0.289289432,Subject A,Focused
-0.016392281,0.156864101,0.065925753,-0.018135602,-0.145644733,Subject A,Focused
-0.01617475,0.011954429,0.062160512,-0.037296522,-0.055203606,Subject A,Focused
-0.015954058,-0.185243448,0.038236928,-0.04504484,-0.046885555,Subject A,Focused
-0.015730206,-0.127412386,0.005776341,-0.042750433,-0.024594311,Subject A,Focused
-0.015503197,0.149789098,-0.011201022,-0.039407393,0.085056711,Subject A,Focused
-0.015273032,0.337119187,-0.007948425,-0.041215208,0.230466247,Subject A,Focused
-0.015039718,0.280953625,-0.007623086,-0.045008329,0.297149567,Subject A,Focused
-0.014803259,0.187594797,-0.026926046,-0.042830528,0.25002363,Subject A,Focused
-0.014563661,0.328209817,-0.04635706,-0.032513293,0.174152993,Subject A,Focused
-0.014320935,0.648529775,-0.032612493,-0.021716811,0.162292154,Subject A,Focused
-0.014075088,0.819984249,0.014597027,-0.019518119,0.198412835,Subject A,Focused
-0.013826131,0.675160303,0.057516825,-0.024994937,0.193872638,Subject A,Focused
-0.013574075,0.445397889,0.065539187,-0.027906885,0.124461974,Subject A,Focused
-0.013318933,0.468187023,0.048820701,-0.022023985,0.070947991,Subject A,Focused
-0.013060719,0.734428284,0.036343556,-0.013853356,0.096451293,Subject A,Focused
-0.012799446,0.871796092,0.031929338,-0.014175796,0.134390412,Subject A,Focused
-0.01253513,0.60110269,0.008834026,-0.022898038,0.065893188,Subject A,Focused
-0.012267788,0.086376889,-0.052265792,-0.027713785,-0.100315243,Subject A,Focused
-0.011997438,-0.263251052,-0.133158445,-0.019586483,-0.203655425,Subject A,Focused
-0.0117241,-0.274568915,-0.191426115,-0.0062006,-0.126859998,Subject A,Focused
-0.011447795,-0.161933677,-0.197887904,-0.005997725,0.040733133,Subject A,Focused
-0.011168544,-0.189381979,-0.157796208,-0.027592991,0.105643481,Subject A,Focused
-0.010886372,-0.319173981,-0.100826055,-0.05673839,0.015246615,Subject A,Focused
-0.010601303,-0.308762846,-0.055628731,-0.066928765,-0.084859361,Subject A,Focused
-0.010313364,-0.097278224,-0.03252741,-0.045221947,-0.061882559,Subject A,Focused
-0.010022579,0.063033792,-0.025565229,-0.006651122,0.013912032,Subject A,Focused
-0.009728977,-0.082536168,-0.026137513,0.019221947,-0.040267917,Subject A,Focused
-0.009432585,-0.452381013,-0.030950657,0.015781445,-0.273723058,Subject A,Focused
-0.009133431,-0.709679818,-0.037105881,-0.008464302,-0.526441415,Subject A,Focused
-0.008831546,-0.65482876,-0.035015826,-0.033604503,-0.60762072,Subject A,Focused
-0.008526961,-0.429036694,-0.013266191,-0.049028362,-0.489623108,Subject A,Focused
-0.00821971,-0.298515252,0.025505153,-0.058264994,-0.298028979,Subject A,Focused
-0.007909828,-0.33112241,0.055443223,-0.067967447,-0.159476357,Subject A,Focused
-0.007597355,-0.378760293,0.042779484,-0.078310554,-0.112140323,Subject A,Focused
-0.007282332,-0.339381659,-0.020389283,-0.084658116,-0.143203146,Subject A,Focused
-0.006964804,-0.3040593,-0.098341842,-0.084278377,-0.239644282,Subject A,Focused
-0.006644816,-0.385384396,-0.137614238,-0.07891467,-0.364090225,Subject A,Focused
-0.00632242,-0.491352513,-0.115578708,-0.072478474,-0.419232942,Subject A,Focused
-0.005997665,-0.400759335,-0.059377758,-0.068268367,-0.305064805,Subject A,Focused
-0.005670608,-0.07678532,-0.016307808,-0.067594843,-0.039267925,Subject A,Focused
-0.005341302,0.209590874,-0.011630725,-0.068820664,0.213422149,Subject A,Focused
-0.005009804,0.168490431,-0.034364366,-0.067292491,0.280080982,Subject A,Focused
-0.004676171,-0.13338439,-0.053499414,-0.058428512,0.152045874,Subject A,Focused
-0.004340463,-0.306768631,-0.044330317,-0.043038471,-0.012025704,Subject A,Focused
-0.004002737,-0.092681954,-0.008338581,-0.028668989,-0.060477543,Subject A,Focused
-0.003663055,0.311239671,0.026160871,-0.022688434,0.006326973,Subject A,Focused
-0.003321476,0.474664499,0.028712099,-0.02339609,0.075512794,Subject A,Focused
-0.002978064,0.244951753,-0.001359828,-0.020956589,0.066112596,Subject A,Focused
-0.002632879,-0.089061823,-0.030488373,-0.009007866,-0.000125388,Subject A,Focused
-0.002285985,-0.16995717,-0.02468955,0.007424449,-0.050331265,Subject A,Focused
-0.001937445,0.006117284,0.011705201,0.018709106,-0.040442706,Subject A,Focused
-0.001587322,0.139353025,0.036826052,0.023153175,0.020847058,Subject A,Focused
-0.001235681,0.045821405,0.015529874,0.028033288,0.101007299,Subject A,Focused
-0.000882584,-0.112996936,-0.03953344,0.037805465,0.176518126,Subject A,Focused
-0.000528099,-0.07761429,-0.07843793,0.045506188,0.228051686,Subject A,Focused
-0.00017229,0.125516762,-0.067274018,0.038517113,0.206423004,Subject A,Focused
0.000184776,0.186053351,-0.022859043,0.012129015,0.04382728,Subject A,Focused
0.000543032,-0.080190398,0.011595755,-0.023235068,-0.24900618,Subject A,Focused
0.000902409,-0.446463021,0.017309935,-0.048051115,-0.514821004,Subject A,Focused
0.001262838,-0.520042469,0.014239043,-0.048315522,-0.564586999,Subject A,Focused
0.00162425,-0.231678576,0.027557162,-0.026769079,-0.396853328,Subject A,Focused
0.001986573,0.065299434,0.055604906,-0.000856093,-0.239099085,Subject A,Focused
0.002349738,0.030823137,0.07769369,0.010821074,-0.309597314,Subject A,Focused
0.002713674,-0.248891235,0.082354266,0.001436156,-0.570019363,Subject A,Focused
0.003078309,-0.401010111,0.07514125,-0.021829318,-0.777680567,Subject A,Focused
0.003443573,-0.259542507,0.061265118,-0.045627211,-0.772445442,Subject A,Focused
0.003809392,-0.05719428,0.034848043,-0.060230331,-0.640084557,Subject A,Focused
0.004175696,-0.079496557,-0.005797814,-0.063729868,-0.562759517,Subject A,Focused
0.004542412,-0.267797754,-0.039774806,-0.058963232,-0.569221173,Subject A,Focused
0.00490947,-0.312603766,-0.036979081,-0.048046113,-0.514560091,Subject A,Focused
0.005276797,-0.099947865,0.004257242,-0.031182665,-0.310457946,Subject A,Focused
0.005644323,0.114079056,0.045651286,-0.010575454,-0.092401535,Subject A,Focused
0.006011976,0.056191481,0.04957085,0.007221113,-0.081808109,Subject A,Focused
0.006379686,-0.156280715,0.027864814,0.016015045,-0.296339774,Subject A,Focused
0.00674738,-0.122395012,0.034486299,0.017458676,-0.480379067,Subject A,Focused
0.007114987,0.326917658,0.102410379,0.021345322,-0.374480185,Subject A,Focused
0.007482437,0.86699022,0.197161251,0.036243634,-0.014656144,Subject A,Focused
0.007849658,1.029122578,0.245435262,0.060046676,0.305718682,Subject A,Focused
0.008216581,0.740206001,0.210150333,0.081045984,0.36632228,Subject A,Focused
0.008583137,0.381622493,0.126946172,0.088459551,0.231473114,Subject A,Focused
0.008949257,0.304441038,0.061778161,0.081177075,0.098037924,Subject A,Focused
0.009314873,0.423130556,0.042193327,0.066532351,0.016660675,Subject A,Focused
0.009679917,0.390338399,0.041957968,0.052478628,-0.132072037,Subject A,Focused
0.010044322,0.094171438,0.027873185,0.042253221,-0.401833684,Subject A,Focused
0.010408021,-0.18472647,0.002063649,0.034963556,-0.640755234,Subject A,Focused
0.010770947,-0.151131792,-0.010769605,0.028255553,-0.65880187,Subject A,Focused
0.011133032,0.100416119,-0.002403544,0.019639056,-0.486489116,Subject A,Focused
0.011494212,0.187241443,0.013049276,0.007261045,-0.375000682,Subject A,Focused
0.011854418,-0.078923151,0.030328312,-0.00829918,-0.508021489,Subject A,Focused
0.012213587,-0.438758361,0.068065809,-0.022040753,-0.765345383,Subject A,Focused
0.012571652,-0.48820395,0.138855823,-0.025398022,-0.841645844,Subject A,Focused
0.012928551,-0.172770059,0.214910798,-0.012225277,-0.600662363,Subject A,Focused
0.013284219,0.140806402,0.243911137,0.013634699,-0.23742524,Subject A,Focused
0.013638595,0.117696971,0.20571577,0.038289296,-0.039749279,Subject A,Focused
0.013991615,-0.125991106,0.143277418,0.04857207,-0.045000166,Subject A,Focused
0.01434322,-0.17357471,0.126360884,0.043025181,-0.027519423,Subject A,Focused
0.014693347,0.151975541,0.183614731,0.030513721,0.178049525,Subject A,Focused
0.015041937,0.548221767,0.274573038,0.019798371,0.449684478,Subject A,Focused
0.015388928,0.607554568,0.329385173,0.014110194,0.537744093,Subject A,Focused
0.01573426,0.320044678,0.313199023,0.014328724,0.382840018,Subject A,Focused
0.016077871,0.055949747,0.250791204,0.020964281,0.174837703,Subject A,Focused
0.016419702,0.07808132,0.193265369,0.030089575,0.105838549,Subject A,Focused
0.016759695,0.246333797,0.168409078,0.031398375,0.161620543,Subject A,Focused
0.017097791,0.277084041,0.165381438,0.015719422,0.198773544,Subject A,Focused
0.017433931,0.150766221,0.159178981,-0.014191987,0.1585741,Subject A,Focused
0.017768059,0.091888186,0.138752097,-0.042800942,0.121014813,Subject A,Focused
0.018100115,0.181473288,0.11075821,-0.054873348,0.153271541,Subject A,Focused
0.018430044,0.188568365,0.086794989,-0.050179103,0.183742145,Subject A,Focused
0.018757786,-0.11174185,0.074542503,-0.042671039,0.082190313,Subject A,Focused
0.019083285,-0.572569858,0.076662692,-0.043221112,-0.15748177,Subject A,Focused
0.019406481,-0.795522541,0.090171959,-0.046326564,-0.37597269,Subject A,Focused
0.019727318,-0.612941649,0.105820947,-0.038386282,-0.414221661,Subject A,Focused
0.020045734,-0.299822261,0.111911359,-0.017077837,-0.28717475,Subject A,Focused
0.020361674,-0.223335015,0.100942388,0.004531257,-0.155031996,Subject A,Focused
0.020675077,-0.378789829,0.073296518,0.014554348,-0.13195807,Subject A,Focused
0.020985884,-0.4186021,0.036119748,0.015873244,-0.166521078,Subject A,Focused
0.021294037,-0.137757871,-0.000483527,0.018366367,-0.129966881,Subject A,Focused
0.021599476,0.227359556,-0.027994758,0.023020238,0.01199483,Subject A,Focused
0.021902139,0.294478871,-0.04298407,0.021781156,0.165893808,Subject A,Focused
0.022201966,0.046792967,-0.047249855,0.011690268,0.249388371,Subject A,Focused
0.022498897,-0.121598826,-0.044543297,0.000228377,0.302494207,Subject A,Focused
0.022792873,0.090834149,-0.037832141,-0.006402885,0.40848498,Subject A,Focused
0.023083833,0.486277079,-0.030688777,-0.013213372,0.533849463,Subject A,Focused
0.023371714,0.598579362,-0.029420269,-0.028624558,0.529191768,Subject A,Focused
0.023656454,0.281569386,-0.03843324,-0.050467469,0.320729317,Subject A,Focused
0.023937991,-0.101394535,-0.051296849,-0.066410053,0.043023722,Subject A,Focused
0.024216258,-0.136935533,-0.05276603,-0.067933831,-0.086437385,Subject A,Focused
0.024491192,0.123632831,-0.036823183,-0.058939076,-0.014672578,Subject A,Focused
0.024762724,0.2605189,-0.019389173,-0.049516982,0.091127052,Subject A,Focused
0.025030789,0.054449466,-0.023691944,-0.04447341,0.062462824,Subject A,Focused
0.025295317,-0.225109012,-0.051585594,-0.039735031,-0.048429927,Subject A,Focused
0.025556238,-0.182932951,-0.077858055,-0.028956513,-0.031723338,Subject A,Focused
0.025813485,0.17412922,-0.079155151,-0.012463112,0.201606329,Subject A,Focused
0.026066988,0.434232386,-0.063990119,0.000977483,0.479836112,Subject A,Focused
0.026316678,0.302308607,-0.064640845,0.00202297,0.558141724,Subject A,Focused
0.026562485,-0.028578704,-0.097425378,-0.009620055,0.405834051,Subject A,Focused
0.026804338,-0.133536116,-0.139505077,-0.024491291,0.233219252,Subject A,Focused
0.027042166,0.092536597,-0.152024805,-0.032424095,0.232696264,Subject A,Focused
0.027275904,0.306485709,-0.122062439,-0.030916172,0.373653483,Subject A,Focused
0.027505485,0.183707496,-0.074354031,-0.024413502,0.500307012,Subject A,Focused
0.027730837,-0.134820477,-0.043193913,-0.018201372,0.566751459,Subject A,Focused
0.027951885,-0.215772546,-0.039975238,-0.015487983,0.677828322,Subject A,Focused
0.028168556,0.095034212,-0.05012261,-0.018401351,0.899869988,Subject A,Focused
0.028380786,0.461560541,-0.056706617,-0.027173129,1.126408844,Subject A,Focused
0.028588517,0.487060965,-0.060592607,-0.037064645,1.189174938,Subject A,Focused
0.028791679,0.215703686,-0.073638428,-0.039355885,1.058243002,Subject A,Focused
0.028990173,0.055680346,-0.094584271,-0.028251672,0.86620864,Subject A,Focused
0.029183911,0.243563741,-0.10150499,-0.006572624,0.739532898,Subject A,Focused
0.02937285,0.554242131,-0.07605734,0.015878452,0.663842355,Subject A,Focused
0.029556981,0.613342919,-0.03014664,0.028615113,0.542367336,Subject A,Focused
0.029736245,0.382029214,0.00338616,0.026016516,0.352727078,Subject A,Focused
0.029910468,0.184931999,0.007797842,0.010599126,0.194984157,Subject A,Focused
0.030079468,0.267963367,-0.00041087,-0.00739054,0.168996435,Subject A,Focused
0.030243252,0.480268616,0.004355109,-0.017012939,0.233565919,Subject A,Focused
0.030402039,0.489195788,0.024994748,-0.016348702,0.227641084,Subject A,Focused
0.03055589,0.224010872,0.041888414,-0.01336515,0.038607922,Subject A,Focused
0.030704338,-0.046082363,0.038026221,-0.015074144,-0.276974519,Subject A,Focused
0.030846704,-0.087796557,0.013298247,-0.018697988,-0.554652106,Subject A,Focused
0.03098307,-0.011995717,-0.023646011,-0.017021166,-0.684679469,Subject A,Focused
0.031114627,-0.098333684,-0.066125517,-0.010207393,-0.694634007,Subject A,Focused
0.031242241,-0.386081569,-0.109510439,-0.007049641,-0.682196367,Subject A,Focused
0.031364454,-0.599179376,-0.149091394,-0.013355837,-0.695289345,Subject A,Focused
0.031478188,-0.514077242,-0.182112855,-0.022675605,-0.694628299,Subject A,Focused
0.031583073,-0.268204473,-0.207576844,-0.021560527,-0.62327655,Subject A,Focused
0.031684276,-0.179038603,-0.22244117,-0.00343629,-0.484671404,Subject A,Focused
0.031787298,-0.309107486,-0.222591624,0.024655413,-0.332964058,Subject A,Focused
0.031887809,-0.371311578,-0.209049977,0.048805754,-0.199498572,Subject A,Focused
0.031971264,-0.122944165,-0.189483907,0.0595564,-0.065080546,Subject A,Focused
0.032031244,0.26998285,-0.172322786,0.056403192,0.079276615,Subject A,Focused
0.032089448,0.403727555,-0.161036461,0.044310716,0.177192329,Subject A,Focused
0.032186232,0.147643392,-0.152440662,0.028661236,0.157207011,Subject A,Focused
