timestamps,TP9,AF7,AF8,TP10,Subject,Emotion
0.033993064,-0.269341971,0.054549366,-0.108696845,0.504946836,Subject A,Focused
0.033642411,0.210776558,0.063959783,-0.096116969,0.490369698,Subject A,Focused
0.033286605,0.576685957,0.07145861,-0.068628076,0.47488742,Subject A,Focused
0.032925739,0.380854115,0.088115992,-0.035887202,0.428401673,Subject A,Focused
0.032559904,-0.128287184,0.11840262,-0.006857542,0.383131045,Subject A,Focused
0.032189195,-0.308747208,0.146349583,0.021162678,0.406884566,Subject A,Focused
0.031813709,0.051719717,0.14884192,0.051923322,0.499842981,Subject A,Focused
0.031433544,0.474657124,0.122813305,0.075940666,0.561031419,Subject A,Focused
0.031048798,0.430625873,0.088264301,0.077414197,0.501138237,Subject A,Focused
0.030659573,0.025878312,0.063182401,0.055135006,0.373439221,Subject A,Focused
0.030265968,-0.163582994,0.049037396,0.028376966,0.33807531,Subject A,Focused
0.029868087,0.131249936,0.04568273,0.019697526,0.474575392,Subject A,Focused
0.02946603,0.523212394,0.063732726,0.037054091,0.666679679,Subject A,Focused
0.029059901,0.500405866,0.107232594,0.073085598,0.714312814,Subject A,Focused
0.028649803,0.121065736,0.153551999,0.113106249,0.547255419,Subject A,Focused
0.028235842,-0.058466932,0.168803889,0.138763282,0.282263252,Subject A,Focused
0.027818122,0.264872318,0.143678417,0.131872783,0.062272605,Subject A,Focused
0.02739675,0.70780931,0.102239911,0.086201101,-0.10828258,Subject A,Focused
0.02697183,0.678571342,0.074622595,0.017188316,-0.32462536,Subject A,Focused
0.02654347,0.153532294,0.07037024,-0.046603723,-0.606343162,Subject A,Focused
0.026111774,-0.273826968,0.077729235,-0.086099102,-0.828842044,Subject A,Focused
0.025676849,-0.151904896,0.077386166,-0.104660487,-0.857287423,Subject A,Focused
0.025238802,0.252606611,0.054510967,-0.117732888,-0.711285318,Subject A,Focused
0.024797739,0.319315912,0.008907925,-0.133134754,-0.550481371,Subject A,Focused
0.024353766,-0.102786462,-0.039728236,-0.144853304,-0.501026438,Subject A,Focused
0.023906992,-0.498556021,-0.064001775,-0.143023301,-0.534862421,Subject A,Focused
0.023457523,-0.366632699,-0.054699084,-0.123760745,-0.533597293,Subject A,Focused
0.023005469,0.126161012,-0.031529489,-0.090369217,-0.441657813,Subject A,Focused
0.022550938,0.368809887,-0.019791208,-0.053623522,-0.321845055,Subject A,Focused
0.022094038,0.101355864,-0.015727424,-0.033385815,-0.257369908,Subject A,Focused
0.021634875,-0.261439029,0.016025663,-0.04945033,-0.233685762,Subject A,Focused
0.021173554,-0.18746851,0.102126569,-0.100523095,-0.162088833,Subject A,Focused
0.020710181,0.278850059,0.219081728,-0.156523569,-0.023703299,Subject A,Focused
0.020244857,0.594962486,0.302306703,-0.183565704,0.068355988,Subject A,Focused
0.019777682,0.452243733,0.306240934,-0.178365564,0.004325526,Subject A,Focused
0.019308757,0.186311885,0.255237655,-0.168549082,-0.150789384,Subject A,Focused
0.018838178,0.326918151,0.224637152,-0.174851344,-0.195409901,Subject A,Focused
0.018366041,0.886853903,0.263397716,-0.182126623,-0.025659873,Subject A,Focused
0.017892441,1.327328387,0.340742594,-0.157595977,0.219105842,Subject A,Focused
0.017417465,1.242980524,0.379940945,-0.095140189,0.29770007,Subject A,Focused
0.016941203,0.862668661,0.341030935,-0.03121544,0.140712861,Subject A,Focused
0.01646374,0.707323817,0.253249112,-0.012786347,-0.074476975,Subject A,Focused
0.01598516,0.869537308,0.163530904,-0.054129452,-0.141998772,Subject A,Focused
0.01550554,0.893223075,0.076865682,-0.127901103,-0.070427363,Subject A,Focused
0.015024951,0.42816879,-0.032286518,-0.19243976,-0.052167874,Subject A,Focused
0.014543466,-0.224636958,-0.162192869,-0.22132105,-0.206245595,Subject A,Focused
0.014061165,-0.435774063,-0.266279795,-0.21198646,-0.42061706,Subject A,Focused
0.013578133,-0.038412657,-0.301214345,-0.179256508,-0.484994949,Subject A,Focused
0.013094436,0.448046911,-0.275606924,-0.144627535,-0.339969006,Subject A,Focused
0.01261012,0.459719432,-0.237176092,-0.122642449,-0.133703485,Subject A,Focused
0.01212523,0.067069207,-0.218449441,-0.110239279,-0.029264694,Subject A,Focused
0.011639862,-0.173084695,-0.209485713,-0.092142537,-0.017894513,Subject A,Focused
0.011154144,0.027340867,-0.184995271,-0.060084974,0.026565328,Subject A,Focused
0.01066815,0.32382521,-0.144517236,-0.023745726,0.139175743,Subject A,Focused
0.010181842,0.231643256,-0.114525273,0.000111762,0.19316849,Subject A,Focused
0.009695168,-0.196889003,-0.113980196,0.006517022,0.07215094,Subject A,Focused
0.009208272,-0.425826478,-0.128861013,0.00632342,-0.145762634,Subject A,Focused
0.008721504,-0.157940822,-0.126050283,0.011315648,-0.252658691,Subject A,Focused
0.008235054,0.244639773,-0.088469499,0.018973976,-0.154489397,Subject A,Focused
0.007748589,0.226897576,-0.031796441,0.016892938,0.021844552,Subject A,Focused
0.007261558,-0.210228583,0.011210298,0.003677545,0.093176876,Subject A,Focused
0.006774169,-0.48627719,0.016355874,-0.000430984,0.032828206,Subject A,Focused
0.006287739,-0.201214131,-0.021781445,0.028533397,-0.037587475,Subject A,Focused
0.005803262,0.317044944,-0.093142265,0.089704485,-0.032953607,Subject A,Focused
0.0053194,0.418643386,-0.173779125,0.152592179,0.001885698,Subject A,Focused
0.004833201,-0.022042814,-0.22930112,0.182543313,-0.004083042,Subject A,Focused
0.004344418,-0.433887075,-0.234339918,0.167985081,-0.029099412,Subject A,Focused
0.003858338,-0.290331435,-0.196287102,0.123304356,-0.005222693,Subject A,Focused
0.003380586,0.205917211,-0.15157978,0.071928034,0.05253732,Subject A,Focused
0.002906955,0.396506815,-0.132211306,0.032363055,0.04395528,Subject A,Focused
0.002423022,0.031458136,-0.139454443,0.017152058,-0.070750571,Subject A,Focused
0.001922489,-0.419098848,-0.150493198,0.032504355,-0.181034386,Subject A,Focused
0.001427178,-0.397983317,-0.142748933,0.06837395,-0.137007354,Subject A,Focused
0.000977565,0.019945019,-0.110972139,0.093589841,0.059381545,Subject A,Focused
0.000591816,0.261481318,-0.071173147,0.075996004,0.222613175,Subject A,Focused
0.000237229,0.023542506,-0.050999157,0.014468929,0.167922114,Subject A,Focused
-0.000146008,-0.359468769,-0.064373548,-0.055621674,-0.085998808,Subject A,Focused
-0.000590596,-0.40450854,-0.089107201,-0.094894464,-0.319416407,Subject A,Focused
-0.001078363,-0.131943098,-0.08224376,-0.095465763,-0.323438852,Subject A,Focused
-0.001568824,-0.006792933,-0.030581407,-0.081917087,-0.103318867,Subject A,Focused
-0.002040148,-0.275458795,0.022753437,-0.080553596,0.138051742,Subject A,Focused
-0.00249862,-0.609612017,0.021110027,-0.090801833,0.2114612,Subject A,Focused
-0.002958645,-0.540110266,-0.034574868,-0.086098433,0.111177531,Subject A,Focused
-0.003424414,-0.096759695,-0.074338112,-0.04180268,-0.028224711,Subject A,Focused
-0.003890284,0.207289596,-0.029933208,0.038334815,-0.097428936,Subject A,Focused
-0.004350944,0.032870473,0.089059419,0.12444652,-0.091351098,Subject A,Focused
-0.004806621,-0.355027448,0.198468547,0.187676859,-0.053738995,Subject A,Focused
-0.005260248,-0.44983001,0.21780019,0.220354368,-0.017806989,Subject A,Focused
-0.00571314,-0.170240181,0.141478311,0.229589634,-0.01856709,Subject A,Focused
-0.006164283,0.056489502,0.035169648,0.221098192,-0.100597235,Subject A,Focused
-0.006612339,-0.101344023,-0.029962459,0.19722105,-0.258638209,Subject A,Focused
-0.007057082,-0.405916826,-0.032895917,0.163329657,-0.389030161,Subject A,Focused
-0.007499043,-0.355047202,0.001848028,0.123860959,-0.354104743,Subject A,Focused
-0.007938543,0.125572721,0.046098003,0.075079513,-0.118685708,Subject A,Focused
-0.008375374,0.531081144,0.089949795,0.014463183,0.191779287,Subject A,Focused
-0.008809172,0.399477306,0.1276508,-0.043287033,0.387854899,Subject A,Focused
-0.009239782,-0.089014644,0.143704752,-0.072715082,0.375723968,Subject A,Focused
-0.009667245,-0.3288469,0.127280478,-0.063598642,0.221533968,Subject A,Focused
-0.010091593,-0.059173475,0.094026025,-0.031528886,0.065402999,Subject A,Focused
-0.010512745,0.310312789,0.078603754,-0.000187856,-0.01473019,Subject A,Focused
-0.010930568,0.249381259,0.100867372,0.018735306,-0.045140576,Subject A,Focused
-0.011344969,-0.180461391,0.1464438,0.026007678,-0.072647323,Subject A,Focused
-0.011755901,-0.392422405,0.183852789,0.024639463,-0.073397929,Subject A,Focused
-0.012163324,-0.049488637,0.192537906,0.015391105,0.018655096,Subject A,Focused
-0.012567176,0.466079401,0.169213255,-0.001714748,0.199016539,Subject A,Focused
-0.01296738,0.524485063,0.118644902,-0.026440528,0.36187246,Subject A,Focused
-0.013363865,0.060342948,0.053547009,-0.057809606,0.413692785,Subject A,Focused
-0.013756571,-0.342393083,0.000353484,-0.091945703,0.378606834,Subject A,Focused
-0.014145442,-0.211101071,-0.012114085,-0.120726505,0.342350391,Subject A,Focused
-0.014530418,0.210362423,0.022034519,-0.133542788,0.320960961,Subject A,Focused
-0.014911438,0.305853527,0.076748455,-0.120605251,0.257995129,Subject A,Focused
-0.01528844,-0.088909052,0.113233956,-0.077035601,0.15443172,Subject A,Focused
-0.015661368,-0.479389564,0.106125394,-0.009135791,0.119664726,Subject A,Focused
-0.01603017,-0.379815946,0.056066251,0.061296359,0.242037514,Subject A,Focused
-0.016394791,0.05241646,-0.011772406,0.10538527,0.458372556,Subject A,Focused
-0.01675518,0.253587241,-0.0608611,0.109532659,0.624130865,Subject A,Focused
-0.017111283,0.01590797,-0.069231925,0.091587414,0.696522235,Subject A,Focused
-0.017463053,-0.261419709,-0.052875714,0.088724314,0.766081009,Subject A,Focused
-0.017810441,-0.155004351,-0.057026241,0.124395856,0.883124609,Subject A,Focused
-0.018153402,0.175073353,-0.111878114,0.187949315,0.927447054,Subject A,Focused
-0.018491891,0.188451891,-0.196202803,0.246589092,0.725735435,Subject A,Focused
-0.018825868,-0.284160288,-0.254940827,0.272028264,0.287688402,Subject A,Focused
-0.01915529,-0.753464264,-0.257022894,0.253027542,-0.140605053,Subject A,Focused
-0.019480121,-0.662095251,-0.226139564,0.19160619,-0.296154504,Subject A,Focused
-0.019800322,-0.104345491,-0.205630074,0.101956592,-0.153795597,Subject A,Focused
-0.020115861,0.27068753,-0.202926812,0.015052478,0.068978173,Subject A,Focused
-0.020426706,0.070175985,-0.187254418,-0.031095983,0.155887609,Subject A,Focused
-0.020732829,-0.355503303,-0.141117153,-0.020687335,0.101156725,Subject A,Focused
-0.021034204,-0.378447802,-0.091787614,0.021170793,0.054383456,Subject A,Focused
-0.02133081,0.094017403,-0.079981902,0.048131234,0.095590642,Subject A,Focused
-0.021622625,0.51102087,-0.111296578,0.034163089,0.135971468,Subject A,Focused
-0.021909631,0.401021949,-0.154661708,-0.006360036,0.064112939,Subject A,Focused
-0.022191812,-0.026174235,-0.183097325,-0.037717844,-0.072204643,Subject A,Focused
-0.022469154,-0.174337532,-0.197825807,-0.036424136,-0.106437389,Subject A,Focused
-0.022741643,0.153203662,-0.206756024,-0.006068193,0.028562523,Subject A,Focused
-0.023009267,0.512608619,-0.195077585,0.033734692,0.194935894,Subject A,Focused
-0.023272016,0.426755313,-0.137051802,0.066599152,0.204592484,Subject A,Focused
-0.023529881,0.026068698,-0.037425431,0.088281398,0.04264183,Subject A,Focused
-0.023782855,-0.126412677,0.057534112,0.102029658,-0.120826143,Subject A,Focused
-0.024030931,0.21119488,0.102030367,0.110326811,-0.138263409,Subject A,Focused
-0.024274105,0.632915951,0.093884901,0.113019686,-0.045584705,Subject A,Focused
-0.024512373,0.621022818,0.064143904,0.110858028,0.015268822,Subject A,Focused
-0.024745732,0.229922249,0.03334699,0.105883509,-0.005462718,Subject A,Focused
-0.024974183,0.008605151,-0.002568095,0.096922404,-0.005855288,Subject A,Focused
-0.025197724,0.26988377,-0.042878714,0.07916222,0.117763595,Subject A,Focused
-0.025416358,0.680014169,-0.059707334,0.05269235,0.307803873,Subject A,Focused
-0.025630085,0.709351934,-0.020939292,0.029880975,0.385046943,Subject A,Focused
-0.02583891,0.340600484,0.068845115,0.028681704,0.258316649,Subject A,Focused
-0.026042836,0.093639738,0.16389925,0.05516844,0.050947623,Subject A,Focused
-0.026241869,0.333518141,0.219660159,0.093175774,-0.025727195,Subject A,Focused
-0.026436017,0.776188393,0.233667288,0.113059093,0.086480991,Subject A,Focused
-0.026625288,0.844911944,0.235708301,0.0927282,0.228895842,Subject A,Focused
-0.026809693,0.410156974,0.239927042,0.033829515,0.217900784,Subject A,Focused
-0.026989245,-0.052984954,0.223022343,-0.038290783,0.052798652,Subject A,Focused
-0.027163957,-0.083848048,0.160623066,-0.091048505,-0.108430339,Subject A,Focused
-0.027333846,0.188596568,0.071700087,-0.108229679,-0.150373014,Subject A,Focused
-0.027498929,0.258135948,0.004092988,-0.102844774,-0.115528806,Subject A,Focused
-0.027659229,-0.062651703,-0.023322235,-0.103609389,-0.11179341,Subject A,Focused
-0.027814767,-0.393452856,-0.041089102,-0.123881524,-0.162704879,Subject A,Focused
-0.027965568,-0.307024248,-0.083568273,-0.146183357,-0.197146979,Subject A,Focused
-0.028111659,0.080238877,-0.142546382,-0.141101808,-0.167759176,Subject A,Focused
-0.028253068,0.236933982,-0.182327458,-0.097488058,-0.122519231,Subject A,Focused
-0.028389824,-0.098382353,-0.188622097,-0.029869755,-0.136198448,Subject A,Focused
-0.028521955,-0.575543024,-0.182516024,0.036060917,-0.204069868,Subject A,Focused
-0.028649489,-0.686226004,-0.189643005,0.075126454,-0.24534455,Subject A,Focused
-0.028772457,-0.417822352,-0.215077017,0.067179357,-0.21068564,Subject A,Focused
-0.028890887,-0.246503565,-0.251839647,0.009049006,-0.148372371,Subject A,Focused
-0.029004809,-0.479330502,-0.295484459,-0.071952276,-0.140415008,Subject A,Focused
-0.02911425,-0.819593881,-0.338033049,-0.128796375,-0.192668501,Subject A,Focused
-0.029219242,-0.743219383,-0.359410667,-0.130498775,-0.223106498,Subject A,Focused
-0.029319816,-0.203036169,-0.343018323,-0.085749096,-0.164715331,Subject A,Focused
-0.029416003,0.271205759,-0.299667968,-0.026505531,-0.052719212,Subject A,Focused
-0.029507834,0.228309181,-0.261940879,0.027326812,0.01194527,Subject A,Focused
-0.02959534,-0.142820655,-0.249983967,0.07886455,-0.026050301,Subject A,Focused
-0.029678555,-0.285480658,-0.252985346,0.132764276,-0.125475206,Subject A,Focused
-0.029757511,-0.019171375,-0.249684076,0.17606882,-0.206125656,Subject A,Focused
-0.029832241,0.241757417,-0.235449115,0.18909115,-0.231156528,Subject A,Focused
-0.029902778,0.087506671,-0.217645941,0.171584502,-0.220680018,Subject A,Focused
-0.029969151,-0.290605284,-0.192685142,0.150050648,-0.202433419,Subject A,Focused
-0.030031395,-0.3344536,-0.145777421,0.155655617,-0.17474816,Subject A,Focused
-0.03008954,0.115948469,-0.076942184,0.195727143,-0.125684806,Subject A,Focused
-0.030143618,0.563193636,-0.013974217,0.24893242,-0.073587658,Subject A,Focused
-0.030193659,0.471730931,0.0114882,0.289386331,-0.064140486,Subject A,Focused
-0.030239692,-0.03741378,-0.001749169,0.312551405,-0.116930965,Subject A,Focused
-0.030281749,-0.331901718,-0.023151076,0.332298869,-0.19281057,Subject A,Focused
-0.030319862,-0.070048903,-0.02680521,0.35401597,-0.23965109,Subject A,Focused
-0.030354063,0.378508912,-0.022324613,0.361630286,-0.26602258,Subject A,Focused
-0.030384383,0.427221917,-0.039835737,0.339026492,-0.334686685,Subject A,Focused
-0.030410859,0.027625816,-0.084258036,0.297324991,-0.464091401,Subject A,Focused
-0.030433525,-0.29075751,-0.117177015,0.267898361,-0.565177133,Subject A,Focused
-0.030452419,-0.126450374,-0.09531886,0.266825402,-0.522154015,Subject A,Focused
-0.030467581,0.275597323,-0.022626386,0.276559698,-0.342991279,Subject A,Focused
-0.030479048,0.362060672,0.048858902,0.268303153,-0.186995547,Subject A,Focused
-0.030486863,0.005354383,0.072135156,0.23555429,-0.203198224,Subject A,Focused
-0.030491064,-0.33667751,0.048648292,0.198297809,-0.356669303,Subject A,Focused
-0.030491694,-0.235948392,0.014682406,0.178750033,-0.462771456,Subject A,Focused
-0.030488789,0.141692607,-0.002942922,0.182491067,-0.400110745,Subject A,Focused
-0.03048239,0.271496844,-0.005641488,0.202060172,-0.242543583,Subject A,Focused
-0.030472534,-0.021014348,-0.005127347,0.226858223,-0.154910506,Subject A,Focused
-0.030459258,-0.331960601,-0.004342226,0.243763781,-0.198504324,Subject A,Focused
-0.030442599,-0.232008677,-0.000951143,0.237814547,-0.286164558,Subject A,Focused
-0.03042259,0.152615377,0.001863774,0.204353372,-0.311572028,Subject A,Focused
-0.030399267,0.3148667,-5.69e-05,0.159483856,-0.264599574,Subject A,Focused
-0.030372664,0.054413433,0.002383656,0.129385231,-0.202388941,Subject A,Focused
-0.030342814,-0.257379069,0.028618673,0.126149698,-0.155195876,Subject A,Focused
-0.030309747,-0.192144917,0.081192368,0.137426987,-0.107867148,Subject A,Focused
-0.030273495,0.145789984,0.128466537,0.140053525,-0.057684506,Subject A,Focused
-0.030234085,0.261959377,0.131959214,0.120629779,-0.039994004,Subject A,Focused
-0.030191544,-0.043462948,0.094052974,0.084395061,-0.082117127,Subject A,Focused
-0.030145901,-0.381439756,0.062233213,0.050643799,-0.158901931,Subject A,Focused
-0.030097181,-0.28023438,0.07623076,0.04097973,-0.213581762,Subject A,Focused
-0.030045409,0.181130175,0.122746148,0.06427379,-0.215679284,Subject A,Focused
-0.029990612,0.463256603,0.1548487,0.105358688,-0.185697448,Subject A,Focused
-0.029932816,0.265340984,0.148503189,0.130380424,-0.160472002,Subject A,Focused
-0.029872047,-0.093114927,0.124938654,0.112091862,-0.144304018,Subject A,Focused
-0.029808334,-0.108273574,0.116453889,0.055473486,-0.11097312,Subject A,Focused
-0.029741701,0.239429095,0.122424112,-0.003588066,-0.056667205,Subject A,Focused
-0.029672175,0.471018793,0.109989275,-0.029472237,-0.02583537,Subject A,Focused
-0.029599784,0.259805874,0.059278601,-0.018352727,-0.058827644,Subject A,Focused
-0.029524553,-0.129422013,-0.001889355,0.000446998,-0.125297155,Subject A,Focused
-0.029446507,-0.205128098,-0.02042028,-0.008781825,-0.146278726,Subject A,Focused
-0.029365672,0.072198417,0.025024937,-0.060980206,-0.09465581,Subject A,Focused
-0.029282071,0.220292289,0.100226956,-0.142216282,-0.043976681,Subject A,Focused
-0.02919573,-0.111282095,0.15111179,-0.218534992,-0.083885765,Subject A,Focused
-0.029106671,-0.631706453,0.152311696,-0.253235354,-0.193148962,Subject A,Focused
-0.029014914,-0.74547668,0.115652654,-0.226848681,-0.237430868,Subject A,Focused
-0.02892048,-0.320791822,0.06398079,-0.150472157,-0.120898876,Subject A,Focused
-0.028823386,0.114096587,0.011963891,-0.061234654,0.077990726,Subject A,Focused
-0.028723649,0.01836968,-0.029172716,-0.000768359,0.162603142,Subject A,Focused
-0.02862128,-0.49615944,-0.04362714,0.007897903,0.025363845,Subject A,Focused
-0.028516292,-0.830125348,-0.020344876,-0.029757827,-0.223122058,Subject A,Focused
-0.028408693,-0.663760841,0.029213776,-0.086099737,-0.357540522,Subject A,Focused
-0.028298492,-0.331198403,0.071257824,-0.128839349,-0.265872242,Subject A,Focused
-0.028185696,-0.334057113,0.076408075,-0.140847344,-0.05012365,Subject A,Focused
-0.028070308,-0.649501556,0.047675631,-0.129237123,0.103601853,Subject A,Focused
-0.027952333,-0.750649779,0.017236018,-0.114542407,0.123429097,Subject A,Focused
-0.027831775,-0.319868221,0.013798737,-0.108775333,0.092359012,Subject A,Focused
-0.027708634,0.285506559,0.037426882,-0.104549661,0.113414743,Subject A,Focused
-0.027582914,0.448187834,0.068420863,-0.086053171,0.190006484,Subject A,Focused
-0.027454616,0.066216711,0.094370066,-0.049191959,0.257749272,Subject A,Focused
-0.027323738,-0.318377177,0.119511154,-0.010699687,0.284818888,Subject A,Focused
-0.027190283,-0.206321982,0.14644521,0.002023292,0.290101545,Subject A,Focused
-0.027054248,0.250294287,0.158112669,-0.026723063,0.283069372,Subject A,Focused
-0.026915634,0.492384316,0.130350321,-0.083431058,0.24557877,Subject A,Focused
-0.026774439,0.299475477,0.065968296,-0.130568713,0.18481399,Subject A,Focused
-0.026630661,0.053142007,0.006892477,-0.135814967,0.157990628,Subject A,Focused
-0.0264843,0.20314004,0.001106692,-0.10076522,0.210229264,Subject A,Focused
-0.026335353,0.666092801,0.057654916,-0.059136899,0.305703567,Subject A,Focused
-0.026183818,0.940862886,0.140807373,-0.043659443,0.357097308,Subject A,Focused
-0.026029692,0.762171744,0.205469413,-0.055192413,0.32906079,Subject A,Focused
-0.025872972,0.417559222,0.22732811,-0.066567162,0.282260082,Subject A,Focused
-0.025713654,0.321329741,0.200751631,-0.055839154,0.291438324,Subject A,Focused
-0.025551735,0.437890355,0.130169185,-0.031224463,0.338251519,Subject A,Focused
-0.025387211,0.34625307,0.041823197,-0.020717773,0.32315939,Subject A,Focused
-0.025220077,-0.134669076,-0.008005956,-0.040749421,0.190246209,Subject A,Focused
-0.025050329,-0.618632545,0.033275868,-0.080673787,0.008969529,Subject A,Focused
