timestamps,TP9,AF7,AF8,TP10,Subject,Emotion
-0.012731878,0.043590914,0.025147126,0.002752215,-0.09219845,Subject C,Focused
-0.012835233,-0.039842934,0.071835434,-0.034567999,-0.073467221,Subject C,Focused
-0.012946895,-0.156239546,0.098689842,-0.068753283,-0.127084514,Subject C,Focused
-0.013073242,-0.159763543,0.063278912,-0.072976159,-0.266332132,Subject C,Focused
-0.013192536,-0.084795971,-0.029332427,-0.037267071,-0.393363026,Subject C,Focused
-0.013264385,-0.121577265,-0.113133109,0.018713901,-0.431858298,Subject C,Focused
-0.013270709,-0.366358343,-0.127466932,0.06415557,-0.424527586,Subject C,Focused
-0.0132443,-0.656847957,-0.078836421,0.081603249,-0.468685405,Subject C,Focused
-0.013245059,-0.708411795,-0.017266368,0.070916963,-0.555096791,Subject C,Focused
-0.01330578,-0.422570356,0.030577315,0.03940486,-0.529465329,Subject C,Focused
-0.013408384,-0.031077715,0.073871234,-0.001145125,-0.279321396,Subject C,Focused
-0.013512484,0.11177427,0.110036444,-0.03057972,0.067197727,Subject C,Focused
-0.013596344,-0.102504951,0.103113793,-0.026602809,0.229274272,Subject C,Focused
-0.01366635,-0.412281148,0.030463175,0.016402495,0.093857066,Subject C,Focused
-0.013737007,-0.467297792,-0.065379202,0.0767602,-0.133300157,Subject C,Focused
-0.013812604,-0.200405855,-0.097671622,0.120078925,-0.16255122,Subject C,Focused
-0.013887597,0.144440381,-0.017575945,0.127845478,0.047292883,Subject C,Focused
-0.013956774,0.325808398,0.128819397,0.112462941,0.272221148,Subject C,Focused
-0.014020459,0.336138473,0.230620294,0.105210823,0.314966046,Subject C,Focused
-0.014081681,0.290454743,0.204318373,0.128619417,0.220111729,Subject C,Focused
-0.01414185,0.199355969,0.062838972,0.175779339,0.163991617,Subject C,Focused
-0.014200047,-0.026146374,-0.101553146,0.21304719,0.196096098,Subject C,Focused
-0.01425503,-0.360152862,-0.199629919,0.206491317,0.178443388,Subject C,Focused
-0.014306661,-0.579400484,-0.211053873,0.152423415,-0.006935302,Subject C,Focused
-0.014355566,-0.491848305,-0.178350435,0.083350026,-0.278804978,Subject C,Focused
-0.014402155,-0.211692498,-0.151128204,0.039477352,-0.464764915,Subject C,Focused
-0.014446312,-0.079189414,-0.142148231,0.031891086,-0.535959008,Subject C,Focused
-0.01448776,-0.253157246,-0.130180134,0.036927679,-0.611822913,Subject C,Focused
-0.014526434,-0.490026149,-0.096187985,0.029175923,-0.73079599,Subject C,Focused
-0.014562461,-0.446763291,-0.05340766,0.014790998,-0.754489811,Subject C,Focused
-0.014595958,-0.144615023,-0.040688172,0.023678309,-0.571404516,Subject C,Focused
-0.014626929,0.033004476,-0.083954557,0.068146557,-0.299153358,Subject C,Focused
-0.014655327,-0.167734717,-0.164800061,0.11915359,-0.174007357,Subject C,Focused
-0.01468114,-0.533097187,-0.231851524,0.132536572,-0.269722016,Subject C,Focused
-0.014704404,-0.644731383,-0.246397452,0.096559696,-0.42505325,Subject C,Focused
-0.014725158,-0.395285274,-0.214924294,0.044830715,-0.460171284,Subject C,Focused
-0.014743422,-0.09025607,-0.174694402,0.020000212,-0.381473236,Subject C,Focused
-0.014759196,-0.033331492,-0.151289064,0.031107424,-0.325546282,Subject C,Focused
-0.014772489,-0.160104167,-0.136916908,0.050252543,-0.353027067,Subject C,Focused
-0.014783318,-0.181874053,-0.11021368,0.045095576,-0.373746835,Subject C,Focused
-0.014791703,-0.00839823,-0.068241232,0.007966886,-0.285485213,Subject C,Focused
-0.014797659,0.128047727,-0.03088248,-0.04297506,-0.132339482,Subject C,Focused
-0.014801197,-0.000201905,-0.016359255,-0.081236336,-0.070775887,Subject C,Focused
-0.014802327,-0.285907044,-0.021285264,-0.088518977,-0.173805249,Subject C,Focused
-0.014801064,-0.396115603,-0.026969142,-0.063178892,-0.314494576,Subject C,Focused
-0.01479742,-0.186620899,-0.01943834,-0.022272587,-0.292922541,Subject C,Focused
-0.014791411,0.10684489,-0.000852424,0.005068163,-0.075823502,Subject C,Focused
-0.014783046,0.147569457,0.014086878,-0.003247367,0.146118536,Subject C,Focused
-0.014772337,-0.096024387,0.010554732,-0.040226716,0.1791396,Subject C,Focused
-0.014759297,-0.317874802,-0.013464402,-0.069068862,0.066532426,Subject C,Focused
-0.014743936,-0.252254655,-0.042795625,-0.055306337,0.034358204,Subject C,Focused
-0.014726266,0.006931855,-0.054900316,-0.00462401,0.193556796,Subject C,Focused
-0.014706296,0.137522125,-0.038218018,0.037927011,0.38348988,Subject C,Focused
-0.014684037,8.36e-05,-0.003326027,0.032672774,0.376087833,Subject C,Focused
-0.014659499,-0.190971933,0.025837902,-0.014394762,0.178538398,Subject C,Focused
-0.014632692,-0.151889479,0.035580795,-0.060939696,0.026210799,Subject C,Focused
-0.014603627,0.093649118,0.036895139,-0.073281636,0.069978605,Subject C,Focused
-0.014572314,0.231137682,0.050991867,-0.054983108,0.18029348,Subject C,Focused
-0.014538762,0.050534454,0.07809111,-0.033569218,0.134889366,Subject C,Focused
-0.014502979,-0.284569233,0.087599747,-0.028792822,-0.063768254,Subject C,Focused
-0.014464975,-0.439593963,0.049532247,-0.038104379,-0.172867662,Subject C,Focused
-0.01442476,-0.319160895,-0.024664459,-0.048210827,-0.026100658,Subject C,Focused
-0.014382342,-0.157479871,-0.085752228,-0.053703317,0.229273943,Subject C,Focused
-0.014337733,-0.187680077,-0.099229023,-0.061160271,0.293815539,Subject C,Focused
-0.014290942,-0.335558959,-0.083196275,-0.076564631,0.086237559,Subject C,Focused
-0.014241977,-0.335850193,-0.079227252,-0.093706214,-0.143879299,Subject C,Focused
-0.014190848,-0.103994029,-0.093198996,-0.10009454,-0.116928077,Subject C,Focused
-0.014137563,0.139082509,-0.088402616,-0.093925475,0.130159143,Subject C,Focused
-0.01408213,0.157672611,-0.042519698,-0.088374311,0.29503972,Subject C,Focused
-0.014024554,0.014115603,0.011281911,-0.094751114,0.204311557,Subject C,Focused
-0.013964844,-0.022614353,0.019606176,-0.106722543,0.04370688,Subject C,Focused
-0.013903004,0.154652312,-0.023565739,-0.108107879,0.114265415,Subject C,Focused
-0.01383904,0.356739824,-0.065128676,-0.093074753,0.424039155,Subject C,Focused
-0.013772959,0.37949396,-0.051289006,-0.070589941,0.655353176,Subject C,Focused
-0.013704767,0.296356324,0.017354827,-0.050020017,0.564841031,Subject C,Focused
-0.013634471,0.342914931,0.096174734,-0.031233284,0.298612265,Subject C,Focused
-0.013562082,0.555433139,0.149569445,-0.011779048,0.205000658,Subject C,Focused
-0.013487611,0.682283312,0.178926388,0.003134118,0.388016425,Subject C,Focused
-0.013411068,0.51484164,0.200510687,0.00520443,0.589992656,Subject C,Focused
-0.013332465,0.195724309,0.214522983,-0.002167523,0.550759611,Subject C,Focused
-0.013251817,0.071873551,0.210794034,-0.000162582,0.35542923,Subject C,Focused
-0.013169137,0.264978246,0.198259711,0.026511791,0.310775612,Subject C,Focused
-0.013084441,0.517985597,0.207336261,0.066656997,0.528895822,Subject C,Focused
-0.012997744,0.523080046,0.25188562,0.088052521,0.777101587,Subject C,Focused
-0.01290906,0.311287487,0.299040501,0.071808591,0.782514428,Subject C,Focused
-0.012818405,0.20580894,0.292796494,0.033602756,0.575827849,Subject C,Focused
-0.012725795,0.401144951,0.210942872,0.003495461,0.425441146,Subject C,Focused
-0.012631246,0.703783473,0.0913507,-0.00685875,0.474759816,Subject C,Focused
-0.012534776,0.76610049,-0.001882145,-0.006545924,0.582236392,Subject C,Focused
-0.012436402,0.52556208,-0.034339548,-0.002521476,0.562394682,Subject C,Focused
-0.012336144,0.295573854,-0.022019331,0.010956505,0.471346457,Subject C,Focused
-0.01223402,0.382104597,-0.004629255,0.039310009,0.533107778,Subject C,Focused
-0.012130049,0.702394366,-0.007963045,0.073514381,0.806880563,Subject C,Focused
-0.012024251,0.889425892,-0.03121323,0.093759384,1.056047804,Subject C,Focused
-0.011916649,0.745086399,-0.058752907,0.087389351,1.017280821,Subject C,Focused
-0.011807262,0.457630976,-0.073842023,0.063767975,0.732735668,Subject C,Focused
-0.011696115,0.320864612,-0.063542581,0.048727489,0.50764909,Subject C,Focused
-0.011583229,0.350809054,-0.023027496,0.058789383,0.534260744,Subject C,Focused
-0.011468628,0.308274797,0.035678101,0.081508761,0.661557493,Subject C,Focused
-0.011352333,0.071672581,0.082511927,0.088159904,0.607008393,Subject C,Focused
-0.011234368,-0.162304476,0.088627167,0.066794015,0.333096002,Subject C,Focused
-0.011114753,-0.127661648,0.055287267,0.035087732,0.098611868,Subject C,Focused
-0.010993513,0.145010403,0.020682465,0.017338636,0.121231562,Subject C,Focused
-0.010870666,0.340890751,0.027038447,0.016505491,0.2943554,Subject C,Focused
-0.010746236,0.251299098,0.074299703,0.01557104,0.327205266,Subject C,Focused
-0.010620243,0.04001765,0.112661426,0.001149762,0.123998477,Subject C,Focused
-0.010492708,0.035170733,0.092816739,-0.023412951,-0.090889056,Subject C,Focused
-0.010363654,0.310016716,0.023948653,-0.047091667,-0.062111789,Subject C,Focused
-0.010233104,0.591910032,-0.031517759,-0.063505118,0.168354121,Subject C,Focused
-0.010101082,0.613051076,-0.026810584,-0.070782003,0.31429891,Subject C,Focused
-0.009967609,0.44464727,0.019495021,-0.067016524,0.204988559,Subject C,Focused
-0.009832708,0.384931338,0.054722115,-0.053129872,-0.012297702,Subject C,Focused
-0.009696401,0.556462761,0.059467276,-0.037085135,-0.075309775,Subject C,Focused
-0.009558709,0.738949644,0.060846484,-0.02847172,0.06063646,Subject C,Focused
-0.009419654,0.646801082,0.080963972,-0.028673483,0.183195611,Subject C,Focused
-0.009279255,0.286440313,0.100002134,-0.029804552,0.102468875,Subject C,Focused
-0.009137534,-0.058469688,0.08714957,-0.023529538,-0.11997604,Subject C,Focused
-0.008994509,-0.174805911,0.051202926,-0.010286142,-0.26366053,Subject C,Focused
-0.008850202,-0.142482474,0.033157262,-0.001181053,-0.2198743,Subject C,Focused
-0.008704632,-0.159902889,0.048584182,-0.009301532,-0.100167357,Subject C,Focused
-0.008557822,-0.233980672,0.063708003,-0.034769675,-0.069075461,Subject C,Focused
-0.008409794,-0.170363742,0.042861674,-0.059721636,-0.132911829,Subject C,Focused
-0.008260571,0.119468171,0.002865586,-0.064554658,-0.158673173,Subject C,Focused
-0.008110178,0.430704028,-0.000297191,-0.04944126,-0.084016987,Subject C,Focused
-0.007958639,0.491873647,0.064721799,-0.033656996,-0.014298636,Subject C,Focused
-0.007805979,0.32384037,0.168686845,-0.032854266,-0.058201138,Subject C,Focused
-0.007652224,0.225812883,0.249050213,-0.042775209,-0.137263603,Subject C,Focused
-0.007497398,0.36955448,0.26319167,-0.047514237,-0.066734536,Subject C,Focused
-0.00734153,0.546817439,0.217083719,-0.039685612,0.178437184,Subject C,Focused
-0.007184645,0.442920972,0.153617334,-0.028471111,0.389105742,Subject C,Focused
-0.007026772,0.082619304,0.114663607,-0.027828485,0.367276995,Subject C,Focused
-0.006867938,-0.173700822,0.106145628,-0.04015163,0.167690655,Subject C,Focused
-0.006708169,-0.095414175,0.099509774,-0.055291709,0.011204358,Subject C,Focused
-0.006547493,0.128259407,0.073083085,-0.064907346,-0.00107757,Subject C,Focused
-0.006385938,0.169169731,0.04476282,-0.071880468,0.014001737,Subject C,Focused
-0.006223529,0.011874059,0.049299616,-0.081783011,-0.078401467,Subject C,Focused
-0.006060295,-0.049476568,0.088945629,-0.088960768,-0.217380551,Subject C,Focused
-0.005896261,0.149952095,0.128594294,-0.078257499,-0.199184069,Subject C,Focused
-0.005731453,0.383718137,0.141604568,-0.042807339,0.069682395,Subject C,Focused
-0.005565899,0.305293084,0.137765402,0.004043822,0.428257387,Subject C,Focused
-0.005399624,-0.103995787,0.137412292,0.038995978,0.609308629,Subject C,Focused
-0.005232656,-0.483112481,0.138116426,0.05006994,0.522771341,Subject C,Focused
-0.005065024,-0.497690632,0.123502349,0.043854193,0.343597101,Subject C,Focused
-0.004896755,-0.208391726,0.095353815,0.03225904,0.291356725,Subject C,Focused
-0.004727876,0.032062583,0.079369373,0.018332386,0.370200647,Subject C,Focused
-0.004558416,0.008951538,0.095468688,-0.001017314,0.397179375,Subject C,Focused
-0.004388405,-0.128717368,0.129846871,-0.022216375,0.272966951,Subject C,Focused
-0.004217872,-0.107203217,0.143562256,-0.031454379,0.125793565,Subject C,Focused
-0.004046846,0.096542545,0.111810056,-0.016380171,0.133222736,Subject C,Focused
-0.003875356,0.231615938,0.052907583,0.019612342,0.267089782,Subject C,Focused
-0.003703435,0.121231734,0.012749109,0.056944985,0.313902123,Subject C,Focused
-0.003531111,-0.085628408,0.018568581,0.076655549,0.151069935,Subject C,Focused
-0.003358418,-0.099518173,0.055163841,0.078399678,-0.08954043,Subject C,Focused
-0.003185388,0.121995124,0.092357485,0.077769143,-0.194339308,Subject C,Focused
-0.003012054,0.295085238,0.125220588,0.083370181,-0.151190172,Subject C,Focused
-0.002838448,0.159287547,0.170103249,0.083069028,-0.163175672,Subject C,Focused
-0.002664603,-0.181977144,0.225157783,0.061281846,-0.365445738,Subject C,Focused
-0.002490552,-0.369921642,0.260491028,0.026487586,-0.614978198,Subject C,Focused
-0.002316326,-0.222447781,0.258032656,0.008853963,-0.641960101,Subject C,Focused
-0.00214196,0.047841974,0.239229317,0.025466821,-0.387739723,Subject C,Focused
-0.001967483,0.10201057,0.233062177,0.056728004,-0.099730873,Subject C,Focused
-0.001792928,-0.106821581,0.231090152,0.066712127,-0.048306065,Subject C,Focused
-0.001618328,-0.288523466,0.199969417,0.044476522,-0.215236513,Subject C,Focused
-0.001443714,-0.19365029,0.134448434,0.016071998,-0.345680744,Subject C,Focused
-0.00126912,0.075849618,0.071914452,0.013470002,-0.280946594,Subject C,Focused
-0.001094577,0.219155508,0.046918292,0.03883902,-0.12620073,Subject C,Focused
-0.000920119,0.135038682,0.049981725,0.0653055,-0.053694586,Subject C,Focused
-0.000745778,0.0279355,0.045267691,0.068999186,-0.052134224,Subject C,Focused
-0.000571586,0.091059899,0.019418687,0.05170997,0.013334822,Subject C,Focused
-0.000397579,0.216712506,-0.003422243,0.030234136,0.136289198,Subject C,Focused
-0.000223787,0.141444757,0.004810465,0.012454452,0.115908729,Subject C,Focused
-5.02e-05,-0.169169297,0.041815945,-0.005851844,-0.169877964,Subject C,Focused
0.000123021,-0.428293749,0.082347907,-0.022953549,-0.537732008,Subject C,Focused
0.000295972,-0.37399764,0.111401248,-0.024783606,-0.663671818,Subject C,Focused
0.00046858,-0.10800705,0.136177907,-0.005515884,-0.462112532,Subject C,Focused
0.000640815,0.024776523,0.163746589,0.015463385,-0.197882809,Subject C,Focused
0.000812647,-0.126999278,0.180758157,0.01217603,-0.177579981,Subject C,Focused
0.000984048,-0.327473034,0.168128252,-0.01461865,-0.393863846,Subject C,Focused
0.001154991,-0.25459042,0.132062653,-0.037369531,-0.550332132,Subject C,Focused
0.001325449,0.085570793,0.106271082,-0.037177833,-0.426602475,Subject C,Focused
0.001495398,0.359054719,0.117079378,-0.025675982,-0.137683508,Subject C,Focused
0.001664812,0.322082673,0.152396887,-0.025241785,0.021820693,Subject C,Focused
0.00183367,0.125091918,0.172528839,-0.038192874,-0.049423812,Subject C,Focused
0.002001949,0.106748429,0.152774265,-0.045540129,-0.137256322,Subject C,Focused
0.002169629,0.339296329,0.111079548,-0.032304805,0.00113276,Subject C,Focused
0.002336688,0.527778856,0.086773863,-0.006362264,0.305784789,Subject C,Focused
0.002503107,0.409719143,0.090338711,0.00891643,0.469811458,Subject C,Focused
0.002668865,0.123095252,0.086494928,-0.000522863,0.318264514,Subject C,Focused
0.002833945,0.040119866,0.042790418,-0.022464985,0.030192203,Subject C,Focused
0.002998328,0.285167946,-0.011332844,-0.029587546,-0.068622599,Subject C,Focused
0.003161998,0.576818407,-0.00237759,-0.01008096,0.124338251,Subject C,Focused
0.003324937,0.588998851,0.095647694,0.017813817,0.398389887,Subject C,Focused
0.00348713,0.345726837,0.207922231,0.027135714,0.496197248,Subject C,Focused
0.003648558,0.147729777,0.224668777,0.01311744,0.390690951,Subject C,Focused
0.003809205,0.153004793,0.118417836,-0.004912675,0.250042476,Subject C,Focused
0.003969056,0.174252783,-0.027564546,-0.008966957,0.181270807,Subject C,Focused
0.004128093,-0.035918423,-0.113777956,5.86e-05,0.113815413,Subject C,Focused
0.004286301,-0.39369354,-0.125456473,0.010672276,-0.037383817,Subject C,Focused
0.004443664,-0.537145678,-0.12262029,0.017736897,-0.192562471,Subject C,Focused
0.004600165,-0.295539509,-0.147281471,0.025983114,-0.188768571,Subject C,Focused
0.004755787,0.044261927,-0.174977538,0.039542469,-0.010999862,Subject C,Focused
0.004910512,0.065588737,-0.166398935,0.052884976,0.162888472,Subject C,Focused
0.00506432,-0.258730682,-0.13696883,0.054417974,0.177950626,Subject C,Focused
0.005217191,-0.53651659,-0.143033563,0.038635966,0.086116828,Subject C,Focused
0.005369104,-0.452079483,-0.202465163,0.013091701,0.054284845,Subject C,Focused
0.005520034,-0.137022039,-0.260155065,-0.007559084,0.136114884,Subject C,Focused
0.005669958,0.036026381,-0.249977695,-0.01381224,0.220362602,Subject C,Focused
0.005818848,-0.078393869,-0.175165784,-0.007058287,0.208260556,Subject C,Focused
0.005966679,-0.274077538,-0.104342678,0.005026171,0.161893668,Subject C,Focused
0.006113422,-0.317245764,-0.092090216,0.014816049,0.217821076,Subject C,Focused
0.006259047,-0.254990867,-0.127278662,0.015706886,0.379814528,Subject C,Focused
0.006403522,-0.312741555,-0.165420104,0.003276653,0.474360641,Subject C,Focused
0.006546815,-0.539798846,-0.186225022,-0.017953536,0.35900894,Subject C,Focused
0.006688894,-0.688780815,-0.194699554,-0.033285952,0.137931388,Subject C,Focused
0.006829724,-0.514224749,-0.178290095,-0.033186942,0.082871139,Subject C,Focused
0.006969269,-0.118067271,-0.103611034,-0.02805889,0.30635812,Subject C,Focused
0.007107494,0.128293214,0.024345701,-0.035530456,0.58189156,Subject C,Focused
0.007244362,0.023906093,0.127058584,-0.051601622,0.571687599,Subject C,Focused
0.007379835,-0.215664059,0.117078523,-0.048453486,0.221095177,Subject C,Focused
0.007513872,-0.238876619,0.00166064,-0.008718363,-0.157397665,Subject C,Focused
0.007646435,-0.010879984,-0.107825344,0.047721637,-0.227264946,Subject C,Focused
0.007777483,0.156124722,-0.106628949,0.081339487,0.006526908,Subject C,Focused
0.007906975,0.034457295,-0.002800455,0.074085565,0.237754787,Subject C,Focused
0.008034867,-0.205303693,0.100111728,0.045488092,0.230899046,Subject C,Focused
0.008161119,-0.218092829,0.114935491,0.028775222,0.06399863,Subject C,Focused
0.008285688,0.061576262,0.049785647,0.037564862,-0.019579604,Subject C,Focused
0.00840853,0.340448192,-0.019626,0.058163848,0.076608731,Subject C,Focused
0.008529602,0.344597215,-0.038504292,0.069381396,0.208544155,Subject C,Focused
0.008648858,0.136510877,-0.023120244,0.063436411,0.186323235,Subject C,Focused
0.008766259,-0.022147659,-0.023948383,0.046913668,-0.013425292,Subject C,Focused
0.008881763,-0.035125899,-0.051156597,0.027855233,-0.260158821,Subject C,Focused
0.008995326,-0.074174588,-0.058385717,0.009499153,-0.448457325,Subject C,Focused
0.009106897,-0.314014387,-0.012518967,-0.003240399,-0.59308775,Subject C,Focused
0.009216431,-0.665526044,0.040814095,0.00036895,-0.72635369,Subject C,Focused
0.009323894,-0.850309628,0.018114482,0.026735154,-0.770866976,Subject C,Focused
0.009429255,-0.724185299,-0.089122176,0.064400613,-0.612126012,Subject C,Focused
0.00953247,-0.451352227,-0.177845534,0.086913665,-0.302356725,Subject C,Focused
0.009633472,-0.308851497,-0.140086122,0.073839356,-0.084110542,Subject C,Focused
0.0097322,-0.355476697,0.008942867,0.029926423,-0.129988659,Subject C,Focused
0.009828639,-0.38105169,0.143466996,-0.017319859,-0.315997467,Subject C,Focused
0.009922812,-0.204764877,0.167975891,-0.040404211,-0.358607262,Subject C,Focused
0.010014688,0.06851963,0.112060163,-0.033682448,-0.16918324,Subject C,Focused
0.010104123,0.17868809,0.070560411,-0.013646792,0.034615253,Subject C,Focused
0.010190962,0.05098014,0.080944306,0.001478247,0.012675787,Subject C,Focused
0.010275245,-0.117197702,0.096988884,0.010344254,-0.187261909,Subject C,Focused
0.010357219,-0.130667988,0.073539147,0.024847379,-0.292353485,Subject C,Focused
0.010436974,-0.039666113,0.031333631,0.049526781,-0.151164502,Subject C,Focused
0.010514072,-0.022662812,0.018413698,0.069613934,0.084559731,Subject C,Focused
0.010587862,-0.10185226,0.037179031,0.063321905,0.166604476,Subject C,Focused
0.010658452,-0.114677959,0.041632495,0.02545073,0.062842191,Subject C,Focused
0.010727057,0.015810411,-0.001915671,-0.023758471,-0.036293144,Subject C,Focused
0.01079457,0.114166439,-0.078463607,-0.054343795,-0.007795721,Subject C,Focused
0.010859553,-0.034380103,-0.149368049,-0.050657787,0.035335455,Subject C,Focused
0.010918951,-0.356514242,-0.192569244,-0.02036175,-0.06226591,Subject C,Focused
0.010972416,-0.52216722,-0.210835342,0.016829935,-0.227438593,Subject C,Focused
0.011025131,-0.352294344,-0.214445519,0.045058196,-0.219039395,Subject C,Focused
