timestamps,TP9,AF7,AF8,TP10,Subject,Emotion
0.007196707,-0.378044665,-0.000677183,-0.017141877,0.317495517,Subject C,Focused
0.007030829,-0.273693666,-0.01956672,0.001834894,0.21963363,Subject C,Focused
0.006851575,-0.196397269,-0.003333,0.023719888,0.298559321,Subject C,Focused
0.006652611,-0.295156338,0.046285868,0.018571508,0.446498173,Subject C,Focused
0.006455721,-0.41173226,0.096920073,-0.019537531,0.496766846,Subject C,Focused
0.006301344,-0.320765208,0.114932447,-0.059801523,0.428010418,Subject C,Focused
0.006207607,-0.068139045,0.099094715,-0.071955891,0.361950657,Subject C,Focused
0.006141766,0.051402119,0.077307391,-0.067172916,0.37129012,Subject C,Focused
0.006043969,-0.131638914,0.073194113,-0.082910281,0.375153396,Subject C,Focused
0.005881471,-0.421026401,0.085729189,-0.126578326,0.270538544,Subject C,Focused
0.005672401,-0.489344156,0.100734024,-0.155710353,0.099849239,Subject C,Focused
0.005457195,-0.30338452,0.110179838,-0.128577146,-0.003464861,Subject C,Focused
0.00525764,-0.16600351,0.114376105,-0.06252369,-0.016441713,Subject C,Focused
0.005067398,-0.291260115,0.113277146,-0.021055179,-0.066816951,Subject C,Focused
0.004872015,-0.483828975,0.105286636,-0.040939611,-0.233643957,Subject C,Focused
0.004667247,-0.390362378,0.093929851,-0.089062817,-0.399083837,Subject C,Focused
0.004458688,-0.011094813,0.088065434,-0.102907952,-0.39137269,Subject C,Focused
0.004251596,0.236625104,0.090476149,-0.065137,-0.235171553,Subject C,Focused
0.004045697,0.03538595,0.087744957,-0.022389063,-0.144266668,Subject C,Focused
0.00383801,-0.399709429,0.058621931,-0.027784695,-0.240335375,Subject C,Focused
0.003627175,-0.561681865,0.000138222,-0.077301935,-0.379260955,Subject C,Focused
0.003414161,-0.279856384,-0.056933188,-0.114653481,-0.340507855,Subject C,Focused
0.003200264,0.064942896,-0.072686845,-0.096499762,-0.138679575,Subject C,Focused
0.002985672,0.01777624,-0.04546039,-0.038887272,-0.028067148,Subject C,Focused
0.002769816,-0.374946854,-0.020511047,0.008666115,-0.165629052,Subject C,Focused
0.002552341,-0.602144621,-0.033177047,0.023046539,-0.364999452,Subject C,Focused
0.002333423,-0.28701717,-0.050355304,0.022380597,-0.289156621,Subject C,Focused
0.002113393,0.372239047,0.002607215,0.024018798,0.124226641,Subject C,Focused
0.001892377,0.823607126,0.142440869,0.015107886,0.53628216,Subject C,Focused
0.001670309,0.756237458,0.276670063,-0.018621716,0.57129917,Subject C,Focused
0.001447133,0.374295518,0.284156058,-0.053648735,0.247968045,Subject C,Focused
0.001222907,0.076780773,0.151173546,-0.047126131,-0.059722952,Subject C,Focused
0.000997742,-0.017013997,0.001512145,0.004538037,-0.087566333,Subject C,Focused
0.000771713,-0.1126506,-0.027623246,0.049180426,0.022764638,Subject C,Focused
0.000544849,-0.357366225,0.071307383,0.035198446,-0.034942684,Subject C,Focused
0.000317173,-0.584795963,0.175895271,-0.025380372,-0.298754424,Subject C,Focused
8.87e-05,-0.539966363,0.172931109,-0.066332466,-0.492314224,Subject C,Focused
-0.000140417,-0.260657842,0.075860664,-0.041659484,-0.402566827,Subject C,Focused
-0.000370213,-0.073348202,-0.006092708,0.022336911,-0.167479896,Subject C,Focused
-0.000600611,-0.192360614,0.003662143,0.060003012,-0.102725286,Subject C,Focused
-0.000831566,-0.452828693,0.07700891,0.04400155,-0.296576944,Subject C,Focused
-0.001063029,-0.5301043,0.132839047,0.011575216,-0.492423404,Subject C,Focused
-0.001294945,-0.35340383,0.12958793,0.009260631,-0.416815107,Subject C,Focused
-0.00152726,-0.173867644,0.089581906,0.031308863,-0.147230489,Subject C,Focused
-0.001759921,-0.213613683,0.05053488,0.031906736,-0.047419778,Subject C,Focused
-0.001992876,-0.374410782,0.02162125,-0.009145039,-0.330310714,Subject C,Focused
-0.002226075,-0.391325283,-0.008500551,-0.05585527,-0.783100663,Subject C,Focused
-0.002459465,-0.206975639,-0.040456386,-0.058927529,-0.997176362,Subject C,Focused
-0.002692994,-0.042345744,-0.058521076,-0.015606093,-0.818051409,Subject C,Focused
-0.002926612,-0.07047626,-0.054641451,0.02841656,-0.469447365,Subject C,Focused
-0.00316027,-0.166557871,-0.045746321,0.035437344,-0.241595913,Subject C,Focused
-0.003393919,-0.099794733,-0.059104625,0.018316334,-0.177786866,Subject C,Focused
-0.003627511,0.109502236,-0.10137538,0.015505771,-0.132895489,Subject C,Focused
-0.003860999,0.193256548,-0.147522635,0.033002814,-0.046545668,Subject C,Focused
-0.004094336,0.012356436,-0.165014224,0.033425526,-0.022848386,Subject C,Focused
-0.004327477,-0.220569555,-0.149234359,-0.008918338,-0.135378553,Subject C,Focused
-0.004560375,-0.197382317,-0.130279529,-0.060588176,-0.270167977,Subject C,Focused
-0.004792985,0.080444906,-0.141223194,-0.059887281,-0.247535086,Subject C,Focused
-0.005025263,0.283053877,-0.183567502,0.006067639,-0.068218994,Subject C,Focused
-0.005257163,0.152349801,-0.229961618,0.077809353,0.050425529,Subject C,Focused
-0.005488644,-0.181417018,-0.257349105,0.089851255,-0.07711324,Subject C,Focused
-0.005719661,-0.360805962,-0.265970678,0.047210527,-0.366798053,Subject C,Focused
-0.005950172,-0.235757609,-0.263491463,0.01604655,-0.544275007,Subject C,Focused
-0.006180138,-0.028384156,-0.245207358,0.039846019,-0.46124647,Subject C,Focused
-0.006409519,-0.028771893,-0.204370119,0.086618817,-0.261958523,Subject C,Focused
-0.006638273,-0.219111166,-0.155639747,0.091735739,-0.190317047,Subject C,Focused
-0.006866363,-0.309422203,-0.128600535,0.038886834,-0.281968529,Subject C,Focused
-0.00709375,-0.128839298,-0.131716046,-0.022746223,-0.335356281,Subject C,Focused
-0.007320393,0.143516624,-0.136827209,-0.04030092,-0.196671872,Subject C,Focused
-0.007546252,0.204190428,-0.112112749,-0.014942328,0.01919674,Subject C,Focused
-0.007771287,0.006677489,-0.063882179,0.012537486,0.071492842,Subject C,Focused
-0.007995456,-0.188442671,-0.03016763,0.019206599,-0.081212432,Subject C,Focused
-0.00821872,-0.138470204,-0.030593781,0.022629909,-0.205484491,Subject C,Focused
-0.008441038,0.103744277,-0.037817841,0.044788221,-0.077821927,Subject C,Focused
-0.00866237,0.285832585,-0.012262119,0.072320134,0.231108611,Subject C,Focused
-0.008882674,0.269184532,0.041344859,0.070025994,0.434059689,Subject C,Focused
-0.009101909,0.164334064,0.071124825,0.030586258,0.366637746,Subject C,Focused
-0.009320034,0.153435695,0.037288673,-0.008485644,0.16906353,Subject C,Focused
-0.009537007,0.251995772,-0.041816244,-0.009673023,0.099741169,Subject C,Focused
-0.009752787,0.309141782,-0.115921222,0.012567182,0.218201607,Subject C,Focused
-0.009967329,0.232850484,-0.162007584,0.004956329,0.319467677,Subject C,Focused
-0.010180591,0.14176839,-0.194869247,-0.054255258,0.196662427,Subject C,Focused
-0.010392529,0.22953355,-0.222273779,-0.116121182,-0.084569911,Subject C,Focused
-0.0106031,0.496986707,-0.218447288,-0.111047155,-0.243729482,Subject C,Focused
-0.010812259,0.710027232,-0.158011247,-0.03255116,-0.120236006,Subject C,Focused
-0.011019962,0.673754923,-0.060677096,0.051085673,0.135601483,Subject C,Focused
-0.011226165,0.480833458,0.019103673,0.075613292,0.271714601,Subject C,Focused
-0.011430821,0.392809409,0.04664388,0.051762866,0.265125509,Subject C,Focused
-0.011633882,0.500273349,0.037176326,0.040182829,0.318816511,Subject C,Focused
-0.011835301,0.621662985,0.027340955,0.068357732,0.534997027,Subject C,Focused
-0.012035028,0.575965353,0.026997715,0.100109474,0.736001563,Subject C,Focused
-0.012233011,0.441397098,0.01108958,0.091703404,0.692568826,Subject C,Focused
-0.012429199,0.435431495,-0.039849402,0.052745962,0.442897876,Subject C,Focused
-0.012623541,0.59187153,-0.102804963,0.031057927,0.262097289,Subject C,Focused
-0.012815982,0.698672394,-0.130474211,0.046884967,0.320934233,Subject C,Focused
-0.013006469,0.59051236,-0.108111011,0.065916238,0.484805735,Subject C,Focused
-0.013194946,0.388326942,-0.076022146,0.045194475,0.509678741,Subject C,Focused
-0.013381357,0.344852058,-0.08137898,-0.008886132,0.36731688,Subject C,Focused
-0.013565645,0.495766129,-0.118257051,-0.04527967,0.269663922,Subject C,Focused
-0.013747753,0.592188493,-0.136523916,-0.030416891,0.368230677,Subject C,Focused
-0.013927623,0.427152315,-0.107023018,0.010234063,0.538490962,Subject C,Focused
-0.014105198,0.140359096,-0.053486736,0.023861768,0.547325423,Subject C,Focused
-0.014280417,0.086788633,-0.013402422,-0.004651034,0.386944752,Subject C,Focused
-0.014453223,0.404483038,0.009972134,-0.036708431,0.316961046,Subject C,Focused
-0.014623558,0.819605539,0.038943228,-0.031681836,0.526833252,Subject C,Focused
-0.014791363,0.94759881,0.075597202,0.00261442,0.85200082,Subject C,Focused
-0.01495658,0.722953237,0.08575993,0.025860105,0.940439411,Subject C,Focused
-0.015119151,0.425980497,0.036240895,0.023071764,0.67819078,Subject C,Focused
-0.015279016,0.298369261,-0.05898213,0.023929367,0.326271266,Subject C,Focused
-0.015436118,0.263611951,-0.141349248,0.056765767,0.19487376,Subject C,Focused
-0.015590399,0.100097986,-0.162942488,0.102262534,0.280628474,Subject C,Focused
-0.015741801,-0.203457356,-0.13414439,0.114819336,0.319779474,Subject C,Focused
-0.015890268,-0.407442348,-0.106954533,0.084915981,0.158655539,Subject C,Focused
-0.016035745,-0.345102981,-0.114984689,0.054396028,-0.049683349,Subject C,Focused
-0.016178178,-0.163931484,-0.146586181,0.059038826,-0.063326225,Subject C,Focused
-0.016317516,-0.148595179,-0.180039662,0.075835196,0.118255883,Subject C,Focused
-0.016453708,-0.346242204,-0.221368139,0.051412605,0.247140035,Subject C,Focused
-0.016586705,-0.490701955,-0.284058775,-0.02066017,0.141164224,Subject C,Focused
-0.016716459,-0.348806607,-0.341427746,-0.077480416,-0.103798558,Subject C,Focused
-0.016842925,-0.050132841,-0.332821739,-0.057236263,-0.268925736,Subject C,Focused
-0.016966058,0.049336764,-0.232480154,0.022519892,-0.293611055,Subject C,Focused
-0.017085814,-0.180745514,-0.092334021,0.081005755,-0.2931545,Subject C,Focused
-0.017202151,-0.464600685,0.006577749,0.068058498,-0.323245282,Subject C,Focused
-0.017315027,-0.461947831,0.037353231,0.017106186,-0.266977748,Subject C,Focused
-0.017424399,-0.197751899,0.038591857,-0.007600729,-0.031872188,Subject C,Focused
-0.017530227,-0.029328587,0.043420061,0.005040618,0.229338589,Subject C,Focused
-0.017632468,-0.199441015,0.025840759,0.008779369,0.237342575,Subject C,Focused
-0.017731084,-0.541852378,-0.060749694,-0.02643674,-0.057613655,Subject C,Focused
-0.017826033,-0.692527396,-0.202610941,-0.068980967,-0.357975078,Subject C,Focused
-0.017917275,-0.524327772,-0.313322111,-0.06932232,-0.343244641,Subject C,Focused
-0.01800477,-0.272468903,-0.318662068,-0.029759396,-0.057967507,Subject C,Focused
-0.018088481,-0.231345247,-0.241263385,-0.003738993,0.120566804,Subject C,Focused
-0.01816837,-0.425620365,-0.178616379,-0.025491171,-0.091839102,Subject C,Focused
-0.018244399,-0.642505532,-0.195180391,-0.063906729,-0.559378341,Subject C,Focused
-0.018316531,-0.730445873,-0.255043034,-0.063101785,-0.867426469,Subject C,Focused
-0.018384729,-0.758295544,-0.271239374,-0.019703839,-0.772464114,Subject C,Focused
-0.01844896,-0.851148295,-0.207962973,0.003327286,-0.457551274,Subject C,Focused
-0.018509188,-0.958299997,-0.116910853,-0.049197229,-0.30268468,Subject C,Focused
-0.018565382,-0.900661758,-0.074437984,-0.149694462,-0.442869614,Subject C,Focused
-0.01861751,-0.658886362,-0.098800297,-0.208439,-0.652294347,Subject C,Focused
-0.018665541,-0.492114913,-0.140173005,-0.17318382,-0.684438472,Subject C,Focused
-0.018709448,-0.657026082,-0.146776786,-0.088692725,-0.603600383,Subject C,Focused
-0.018749202,-1.050154795,-0.123197077,-0.040501068,-0.665919145,Subject C,Focused
-0.018784776,-1.265161637,-0.110873957,-0.052556916,-0.930009045,Subject C,Focused
-0.018816148,-1.045586159,-0.120903252,-0.068416649,-1.142465353,Subject C,Focused
-0.018843294,-0.583165141,-0.112372359,-0.035396445,-1.060264613,Subject C,Focused
-0.018866193,-0.290517537,-0.049325589,0.024142619,-0.777335261,Subject C,Focused
-0.018884827,-0.337764401,0.038996444,0.04735144,-0.614197305,Subject C,Focused
-0.018899179,-0.51938322,0.079283206,0.017591471,-0.710032407,Subject C,Focused
-0.018909236,-0.572414694,0.035559017,-0.017433173,-0.854809376,Subject C,Focused
-0.018914986,-0.501268298,-0.049545937,-0.016692914,-0.78233665,Subject C,Focused
-0.018916418,-0.501819247,-0.10335666,-0.004396069,-0.530972953,Subject C,Focused
-0.018913527,-0.633315352,-0.099491417,-0.03645173,-0.391572731,Subject C,Focused
-0.018906309,-0.708678887,-0.070249676,-0.121658824,-0.514730738,Subject C,Focused
-0.01889476,-0.55241364,-0.049904,-0.201650208,-0.697957769,Subject C,Focused
-0.018878881,-0.26968717,-0.031603232,-0.214284115,-0.635886744,Subject C,Focused
-0.018858676,-0.157145335,0.006518368,-0.160600543,-0.317140049,Subject C,Focused
-0.018834149,-0.359689835,0.052113364,-0.096261277,-0.061663672,Subject C,Focused
-0.018805308,-0.703906591,0.062908982,-0.064686657,-0.148594121,Subject C,Focused
-0.018772162,-0.908886913,0.019644135,-0.056469316,-0.500001032,Subject C,Focused
-0.018734724,-0.90292748,-0.047226381,-0.038697054,-0.801038253,Subject C,Focused
-0.01869301,-0.858800874,-0.091439055,-0.007864718,-0.878538883,Subject C,Focused
-0.018647035,-0.927037121,-0.096263174,0.004363964,-0.858360778,Subject C,Focused
-0.018596819,-1.022153109,-0.074646474,-0.022031144,-0.935573586,Subject C,Focused
-0.018542382,-0.936491629,-0.035218374,-0.059200513,-1.083673108,Subject C,Focused
-0.018483747,-0.627928625,0.031764982,-0.057234347,-1.081780824,Subject C,Focused
-0.018420938,-0.293631029,0.128162779,-0.006163893,-0.814594245,Subject C,Focused
-0.018353983,-0.119629407,0.21936529,0.042753089,-0.446059572,Subject C,Focused
-0.018282911,-0.045188765,0.248993969,0.031458442,-0.233610463,Subject C,Focused
-0.018207755,0.118636136,0.191331811,-0.033911171,-0.222059823,Subject C,Focused
-0.018128547,0.374851364,0.085277826,-0.084660372,-0.216265123,Subject C,Focused
-0.018045327,0.495452419,0.004158029,-0.068060584,-0.061957298,Subject C,Focused
-0.017958134,0.341520776,-0.014608003,-0.007355704,0.146961712,Subject C,Focused
-0.017867011,0.097826087,-0.002947494,0.031469022,0.213269283,Subject C,Focused
-0.017772005,0.056611105,-0.018029039,0.02062873,0.124805348,Subject C,Focused
-0.017673165,0.220035403,-0.07284052,-0.004953946,0.07274833,Subject C,Focused
-0.017570544,0.276389098,-0.125890653,-0.002997366,0.164949973,Subject C,Focused
-0.017464195,0.012529565,-0.138072321,0.022406061,0.244849897,Subject C,Focused
-0.017354177,-0.380697474,-0.118216211,0.037739284,0.095244134,Subject C,Focused
-0.017240547,-0.532014776,-0.099600623,0.034198267,-0.238669545,Subject C,Focused
-0.017123366,-0.361259986,-0.088025006,0.038604005,-0.462112538,Subject C,Focused
-0.017002698,-0.175715992,-0.058665494,0.068434986,-0.387154822,Subject C,Focused
-0.016878607,-0.258080266,-0.00390999,0.09987866,-0.167304508,Subject C,Focused
-0.016751156,-0.489989904,0.041117054,0.097888716,-0.097239422,Subject C,Focused
-0.016620414,-0.510794075,0.036777241,0.065975545,-0.24085038,Subject C,Focused
-0.016486446,-0.201619936,-0.008302955,0.042482264,-0.374628316,Subject C,Focused
-0.016349321,0.142573435,-0.041174449,0.045246203,-0.305244311,Subject C,Focused
-0.016209106,0.177248011,-0.022770042,0.042153373,-0.12328825,Subject C,Focused
-0.01606587,-0.062013537,0.03041811,-0.006512152,-0.061588335,Subject C,Focused
-0.01591968,-0.210707287,0.067874417,-0.08646177,-0.173482729,Subject C,Focused
-0.015770607,-0.032331159,0.058845143,-0.13329805,-0.271876053,Subject C,Focused
-0.015618716,0.305254838,0.016988323,-0.10520788,-0.186188679,Subject C,Focused
-0.015464076,0.473509552,-0.022536523,-0.035578706,0.03401643,Subject C,Focused
-0.015306753,0.410647322,-0.039599461,0.003890835,0.228870989,Subject C,Focused
-0.015146814,0.3708291,-0.039846027,-0.012678923,0.360085839,Subject C,Focused
-0.014984324,0.545982371,-0.035519471,-0.03823472,0.525419225,Subject C,Focused
-0.014819352,0.780535186,-0.026273678,-0.016847201,0.752505752,Subject C,Focused
-0.014651964,0.77096647,-0.00612991,0.042156164,0.896724466,Subject C,Focused
-0.014482229,0.486769348,0.0160981,0.074014195,0.821860423,Subject C,Focused
-0.014310214,0.240903103,0.019502773,0.039113634,0.621354402,Subject C,Focused
-0.014135991,0.297415546,0.002633743,-0.028285209,0.54135732,Subject C,Focused
-0.013959631,0.526913075,0.000247122,-0.062139719,0.665252235,Subject C,Focused
-0.013781208,0.56814314,0.049665816,-0.040205411,0.775297227,Subject C,Focused
-0.013600794,0.287917111,0.140096424,-4.5e-05,0.600683902,Subject C,Focused
-0.013418463,-0.057911557,0.21438769,0.013948302,0.151294771,Subject C,Focused
-0.01323429,-0.161149492,0.231587383,-0.002534775,-0.281458863,Subject C,Focused
-0.01304835,-0.049568652,0.213438788,-0.026453498,-0.450811666,Subject C,Focused
-0.012860718,-0.029050569,0.211439715,-0.047437869,-0.406563735,Subject C,Focused
-0.01267147,-0.265318607,0.235752518,-0.072811522,-0.385328655,Subject C,Focused
-0.012480681,-0.550408204,0.24143462,-0.096673585,-0.493569667,Subject C,Focused
-0.012288429,-0.557706968,0.191963999,-0.091106061,-0.577420541,Subject C,Focused
-0.01209479,-0.258606177,0.11537428,-0.044540716,-0.441023211,Subject C,Focused
-0.01189984,0.040481031,0.077178742,0.005847328,-0.134991409,Subject C,Focused
-0.011703654,0.090992659,0.103791378,0.004431289,0.070305154,Subject C,Focused
-0.011506306,0.007446551,0.153360678,-0.057208971,0.010147201,Subject C,Focused
-0.011307869,0.082520969,0.168069274,-0.121403968,-0.172281987,Subject C,Focused
-0.011108416,0.368316411,0.139654782,-0.122458806,-0.214562991,Subject C,Focused
-0.010908018,0.59112186,0.10857289,-0.058486176,-0.063455379,Subject C,Focused
-0.010706745,0.505848383,0.104855658,0.005963547,0.083158895,Subject C,Focused
-0.010504669,0.20736977,0.110335539,0.011145224,0.054648865,Subject C,Focused
-0.010301855,1.72e-05,0.088862797,-0.034626158,-0.072670861,Subject C,Focused
-0.010098371,0.023868052,0.039815753,-0.072786487,-0.09493592,Subject C,Focused
-0.009894281,0.115189462,0.00023689,-0.068529149,0.023880534,Subject C,Focused
-0.009689648,0.02820602,-0.008429023,-0.048080832,0.060182919,Subject C,Focused
-0.009484533,-0.290243885,-0.014866077,-0.055290513,-0.226549563,Subject C,Focused
-0.009278995,-0.6708159,-0.059929205,-0.087978683,-0.784756874,Subject C,Focused
-0.009073092,-0.910645307,-0.130019483,-0.098923495,-1.260497348,Subject C,Focused
-0.008866881,-0.94908361,-0.153226513,-0.05884147,-1.328989395,Subject C,Focused
-0.008660416,-0.863426548,-0.076839187,0.004070456,-1.010484111,Subject C,Focused
-0.008453747,-0.726886287,0.062498335,0.040495115,-0.610211101,Subject C,Focused
-0.008246922,-0.522188635,0.165516068,0.041999322,-0.365002437,Subject C,Focused
-0.008039992,-0.225019575,0.168362209,0.04619714,-0.230236434,Subject C,Focused
-0.007833012,0.078173271,0.099928324,0.081379873,-0.037354056,Subject C,Focused
-0.007626029,0.248418984,0.038682749,0.126179286,0.232621858,Subject C,Focused
-0.007419083,0.280412225,0.029317882,0.135999515,0.432928281,Subject C,Focused
-0.007212205,0.341154941,0.054875681,0.099952114,0.487115303,Subject C,Focused
-0.007005438,0.564797127,0.079077154,0.055798674,0.524465602,Subject C,Focused
-0.006798851,0.864045494,0.092161505,0.045750525,0.706007353,Subject C,Focused
-0.006592505,1.027583573,0.107695007,0.068774385,0.972076457,Subject C,Focused
-0.006386411,0.992168011,0.129135011,0.086980849,1.079082228,Subject C,Focused
-0.006180543,0.926842011,0.136928942,0.075326172,0.910958474,Subject C,Focused
-0.005974929,1.004194458,0.112076696,0.050611569,0.652298035,Subject C,Focused
-0.005769706,1.153697582,0.063589291,0.044623687,0.569032945,Subject C,Focused
-0.005565021,1.130275648,0.02271535,0.059974219,0.673937592,Subject C,Focused
-0.005360826,0.824794483,0.008962906,0.068361337,0.722705439,Subject C,Focused
-0.005156865,0.418698285,0.01022852,0.051513089,0.541894675,Subject C,Focused
-0.004953038,0.173639218,0.002985792,0.026904441,0.244732629,Subject C,Focused
-0.004749774,0.119773894,-0.013749425,0.023184206,0.058653631,Subject C,Focused
-0.004547712,0.045808999,-0.01672168,0.040800739,0.021273332,Subject C,Focused
-0.004346734,-0.201132828,0.006934181,0.053118838,-0.040279928,Subject C,Focused
-0.004145612,-0.505365159,0.035735069,0.046175438,-0.236877943,Subject C,Focused
-0.003943443,-0.629213143,0.037944298,0.040639522,-0.43308772,Subject C,Focused
-0.003741655,-0.504851709,0.015728065,0.062228067,-0.401899365,Subject C,Focused
-0.003543291,-0.2921429,0.005920368,0.097892607,-0.121925841,Subject C,Focused
-0.003348692,-0.157380923,0.029139562,0.100583223,0.166592394,Subject C,Focused
-0.003152663,-0.082087579,0.058353693,0.046535282,0.235455072,Subject C,Focused
