timestamps,TP9,AF7,AF8,TP10,Subject,Emotion
0.00455229,-0.734715404,0.055268608,-0.003905319,-0.86212916,Subject D,Focused
0.004711998,-0.631204763,0.075204083,-0.010668236,-0.888897126,Subject D,Focused
0.004871112,-0.610833638,0.064927741,-0.02249925,-0.935918534,Subject D,Focused
0.005029615,-0.626855925,0.026603865,-0.038115178,-0.98798541,Subject D,Focused
0.005187492,-0.612691997,-0.011354236,-0.051659343,-1.036206162,Subject D,Focused
0.00534473,-0.551702821,-0.024542496,-0.060095276,-1.067262657,Subject D,Focused
0.005501314,-0.456475805,-0.014587526,-0.066053734,-1.049968006,Subject D,Focused
0.005657232,-0.308876103,0.000365189,-0.071644886,-0.963811696,Subject D,Focused
0.005812472,-0.069704136,0.00972036,-0.073127173,-0.836903485,Subject D,Focused
0.005967023,0.239948136,0.017866792,-0.065656317,-0.731136436,Subject D,Focused
0.006120875,0.502571696,0.029792962,-0.05205872,-0.68068951,Subject D,Focused
0.006274017,0.584019623,0.038752621,-0.042936852,-0.658078985,Subject D,Focused
0.006426441,0.445972913,0.034274235,-0.046713241,-0.611750813,Subject D,Focused
0.006578138,0.163166688,0.017664644,-0.060884008,-0.529257946,Subject D,Focused
0.0067291,-0.158108519,0.000448838,-0.074252804,-0.450344597,Subject D,Focused
0.006879321,-0.449956353,-0.012435192,-0.077973488,-0.419457876,Subject D,Focused
0.007028796,-0.677320987,-0.028357836,-0.073917958,-0.436629985,Subject D,Focused
0.007177515,-0.809466298,-0.052394129,-0.071213824,-0.457889619,Subject D,Focused
0.007325474,-0.831993022,-0.075557185,-0.074547412,-0.436293575,Subject D,Focused
0.007472663,-0.772324324,-0.085078498,-0.077926008,-0.356873712,Subject D,Focused
0.007619076,-0.678846472,-0.082371114,-0.071905825,-0.236483112,Subject D,Focused
0.007764704,-0.571469374,-0.083263371,-0.05593765,-0.102988911,Subject D,Focused
0.007909538,-0.435646962,-0.100266395,-0.04057222,0.016259722,Subject D,Focused
0.00805357,-0.269940187,-0.128403644,-0.036459862,0.092742639,Subject D,Focused
0.008196789,-0.117741955,-0.148529176,-0.043658943,0.101068187,Subject D,Focused
0.008339186,-0.037518915,-0.14340411,-0.054130042,0.035886564,Subject D,Focused
0.008480748,-0.047569758,-0.113486268,-0.062816731,-0.074217885,Subject D,Focused
0.008621464,-0.104465991,-0.079983088,-0.072185838,-0.172143866,Subject D,Focused
0.008761321,-0.13016159,-0.069505218,-0.085534823,-0.20024895,Subject D,Focused
0.008900307,-0.063475192,-0.090634376,-0.09957049,-0.138780109,Subject D,Focused
0.009038409,0.09615621,-0.125627622,-0.106007681,-0.025580528,Subject D,Focused
0.009175614,0.281198005,-0.148836513,-0.099431171,0.069475915,Subject D,Focused
0.009311911,0.396483566,-0.153117297,-0.081997765,0.101929959,Subject D,Focused
0.009447289,0.382368108,-0.15405398,-0.060803808,0.089373482,Subject D,Focused
0.009581737,0.251738719,-0.168590822,-0.042635685,0.0889687,Subject D,Focused
0.009715244,0.07402125,-0.19621832,-0.031933491,0.134983488,Subject D,Focused
0.009847799,-0.074796264,-0.223782325,-0.030436651,0.196637933,Subject D,Focused
0.009979392,-0.152884126,-0.240962189,-0.034675614,0.203433375,Subject D,Focused
0.01011001,-0.157467668,-0.24362238,-0.035533549,0.12405945,Subject D,Focused
0.010239645,-0.105733093,-0.228428631,-0.0258402,0.021238066,Subject D,Focused
0.010368284,-0.0199487,-0.197502568,-0.009225098,0.00996455,Subject D,Focused
0.010495915,0.078000439,-0.168509568,0.002653046,0.144773027,Subject D,Focused
0.010622527,0.175357273,-0.166268339,0.002845556,0.356730627,Subject D,Focused
0.010748107,0.272640493,-0.198072523,-0.004015543,0.522378749,Subject D,Focused
0.010872642,0.364024085,-0.245750294,-0.008642744,0.594590452,Subject D,Focused
0.010996117,0.41415285,-0.286540636,-0.008042741,0.641550422,Subject D,Focused
0.011118517,0.380607971,-0.31344996,-0.007590256,0.744560799,Subject D,Focused
0.011239827,0.277677247,-0.330331552,-0.013570262,0.879639066,Subject D,Focused
0.011360032,0.1975231,-0.335863094,-0.025545101,0.930375721,Subject D,Focused
0.011479118,0.230089704,-0.32226705,-0.036345523,0.819130103,Subject D,Focused
0.011597071,0.356338638,-0.288697713,-0.039194325,0.603988717,Subject D,Focused
0.011713876,0.4544158,-0.248110801,-0.034449582,0.433722089,Subject D,Focused
0.011829522,0.434513088,-0.21585171,-0.028784342,0.410791638,Subject D,Focused
0.011943994,0.349540246,-0.19221897,-0.028082196,0.503072103,Subject D,Focused
0.012057279,0.345413112,-0.160586738,-0.032546848,0.588654175,Subject D,Focused
0.012169365,0.501749984,-0.106863585,-0.038749978,0.5813531,Subject D,Focused
0.012280237,0.73883197,-0.041600877,-0.043958424,0.504875337,Subject D,Focused
0.012389883,0.894466588,0.001209225,-0.04641187,0.448113666,Subject D,Focused
0.012498292,0.893104546,-0.006383655,-0.04277108,0.468825992,Subject D,Focused
0.01260545,0.822230346,-0.05588839,-0.029423761,0.551344842,Subject D,Focused
0.012711346,0.820171461,-0.105859179,-0.009202695,0.636238952,Subject D,Focused
0.012815969,0.899742924,-0.119882543,0.005246146,0.669094598,Subject D,Focused
0.012919308,0.928280361,-0.099067444,0.000345149,0.635103979,Subject D,Focused
0.013021351,0.799893372,-0.073787269,-0.023619335,0.57048298,Subject D,Focused
0.013122087,0.5838956,-0.066594618,-0.049902326,0.532384004,Subject D,Focused
0.013221505,0.456087944,-0.069699934,-0.060924875,0.538297101,Subject D,Focused
0.013319592,0.497668355,-0.059482362,-0.054591295,0.543325187,Subject D,Focused
0.013416336,0.610802157,-0.026457193,-0.042009884,0.49640496,Subject D,Focused
0.013511723,0.643372744,0.014634027,-0.031869668,0.411539074,Subject D,Focused
0.013605737,0.557701008,0.041604379,-0.023085006,0.358918031,Subject D,Focused
0.013698361,0.445238208,0.044556425,-0.012704439,0.379922892,Subject D,Focused
0.013789579,0.395281209,0.028228797,-0.004085469,0.429270341,Subject D,Focused
0.013879373,0.393661072,0.002292763,-0.003242754,0.418279323,Subject D,Focused
0.013967725,0.363760929,-0.024843768,-0.010410696,0.313287581,Subject D,Focused
0.014054617,0.278150325,-0.045422833,-0.018721699,0.177655004,Subject D,Focused
0.014140033,0.199043928,-0.052247348,-0.020423435,0.111243233,Subject D,Focused
0.014223954,0.209325081,-0.04286877,-0.013997753,0.156555618,Subject D,Focused
0.014306366,0.324396222,-0.023287396,-0.006933336,0.267104854,Subject D,Focused
0.014387252,0.482705619,-0.003809631,-0.010108359,0.353666769,Subject D,Focused
0.014466596,0.611497388,0.012408434,-0.025207385,0.352160244,Subject D,Focused
0.014544383,0.681680636,0.034798177,-0.038610906,0.263791623,Subject D,Focused
0.0146206,0.6959088,0.072747057,-0.034105676,0.152965083,Subject D,Focused
0.014695231,0.650164025,0.115772936,-0.013196559,0.102233591,Subject D,Focused
0.01476826,0.53719672,0.133844622,0.003817779,0.144424963,Subject D,Focused
0.014839674,0.382084741,0.104975094,0.001360083,0.227649015,Subject D,Focused
0.014909455,0.239421874,0.040509283,-0.011970306,0.257014387,Subject D,Focused
0.014977588,0.139255966,-0.023238375,-0.014077941,0.181292406,Subject D,Focused
0.015044059,0.0577502,-0.058156573,0.002748798,0.040950402,Subject D,Focused
0.015108854,-0.03640204,-0.064703244,0.022164877,-0.067079824,Subject D,Focused
0.015171959,-0.119488999,-0.061247084,0.023484768,-0.070933005,Subject D,Focused
0.015233363,-0.126357208,-0.060782851,0.005337384,0.023283238,Subject D,Focused
0.015293054,-0.032382881,-0.061268518,-0.014067974,0.150410599,Subject D,Focused
0.015351024,0.10006024,-0.055306925,-0.017462716,0.252749298,Subject D,Focused
0.015407264,0.174400869,-0.044439324,-0.005419296,0.324975731,Subject D,Focused
0.015461765,0.152263368,-0.040253231,0.007026166,0.393621133,Subject D,Focused
0.01551452,0.080767526,-0.050488629,0.007784934,0.464530278,Subject D,Focused
0.01556552,0.033362863,-0.068274166,-0.000504146,0.510125232,Subject D,Focused
0.015614759,0.038703702,-0.079841787,-0.006272483,0.511733972,Subject D,Focused
0.01566223,0.068885408,-0.079731075,-0.003916643,0.492162393,Subject D,Focused
0.015707926,0.082350351,-0.07090087,0.000604293,0.485086836,Subject D,Focused
0.015751839,0.066603542,-0.051462054,-0.001463926,0.481272154,Subject D,Focused
0.015793963,0.042971257,-0.012865151,-0.011687279,0.433285356,Subject D,Focused
0.01583429,0.040965203,0.043598814,-0.02476923,0.323131112,Subject D,Focused
0.015872814,0.073221814,0.097628021,-0.035290047,0.205940373,Subject D,Focused
0.015909531,0.132292314,0.12674084,-0.041418481,0.167289869,Subject D,Focused
0.015944434,0.205261222,0.129757432,-0.043965518,0.240327684,Subject D,Focused
0.01597752,0.284937769,0.126741856,-0.044830168,0.376750522,Subject D,Focused
0.016008787,0.364919429,0.136117848,-0.046108591,0.496742172,Subject D,Focused
0.016038232,0.429922735,0.156454284,-0.048289344,0.55405681,Subject D,Focused
0.016065855,0.457878819,0.170700052,-0.048635087,0.5515458,Subject D,Focused
0.016091655,0.430803846,0.163498026,-0.043306632,0.512894287,Subject D,Focused
0.016115633,0.342377477,0.131968623,-0.032474444,0.458220402,Subject D,Focused
0.016137789,0.203591852,0.084331777,-0.021445043,0.403635758,Subject D,Focused
0.016158123,0.051696565,0.035451159,-0.014195555,0.365505096,Subject D,Focused
0.016176636,-0.052820574,0.003112773,-0.007669706,0.352033231,Subject D,Focused
0.016193327,-0.0631928,-0.001707555,0.002801007,0.349848873,Subject D,Focused
0.016208198,0.002704445,0.012512397,0.013050694,0.32593995,Subject D,Focused
0.01622125,0.062280173,0.020790031,0.012129569,0.256196342,Subject D,Focused
0.016232483,0.044371819,0.004762323,-0.002322558,0.161791232,Subject D,Focused
0.016241901,-0.034421997,-0.029302106,-0.017414244,0.107808175,Subject D,Focused
0.016249506,-0.08860417,-0.059970007,-0.019332044,0.145225378,Subject D,Focused
0.016255302,-0.060167901,-0.072995684,-0.009779664,0.25050314,Subject D,Focused
0.01625929,0.023603157,-0.065910967,-0.001857351,0.339398384,Subject D,Focused
0.016261474,0.095099789,-0.034137258,-0.002770269,0.35001164,Subject D,Focused
0.016261856,0.127843596,0.032651857,-0.007652862,0.301069801,Subject D,Focused
0.016260441,0.151619401,0.132631998,-0.009250341,0.258917782,Subject D,Focused
0.01625723,0.195463129,0.238505517,-0.00620436,0.258462856,Subject D,Focused
0.016252227,0.245171442,0.313654089,-1.54e-05,0.272318229,Subject D,Focused
0.016245435,0.266929889,0.342873163,0.00980377,0.253017101,Subject D,Focused
0.016236856,0.250176846,0.340917646,0.022766367,0.186137586,Subject D,Focused
0.016226494,0.207836484,0.328470271,0.032856993,0.09380898,Subject D,Focused
0.016214351,0.144742253,0.30592625,0.032971771,-0.001137455,Subject D,Focused
0.016200433,0.046340088,0.258966013,0.024683857,-0.096414367,Subject D,Focused
0.016184743,-0.09328159,0.18978834,0.019157768,-0.191607022,Subject D,Focused
0.016167287,-0.233444566,0.131984296,0.025565079,-0.259619722,Subject D,Focused
0.016148071,-0.287841352,0.122832215,0.040902336,-0.252536703,Subject D,Focused
0.016127102,-0.187938817,0.160261891,0.054354922,-0.144436494,Subject D,Focused
0.016104388,0.037810565,0.196915734,0.060717262,0.036118047,Subject D,Focused
0.016079937,0.260923309,0.184011316,0.066193885,0.226467285,Subject D,Focused
0.016053757,0.353243958,0.118631444,0.079958797,0.38206352,Subject D,Focused
0.016025857,0.296279021,0.043298316,0.101743515,0.495241803,Subject D,Focused
0.015996248,0.182875841,0.002498738,0.119534335,0.559835102,Subject D,Focused
0.015964938,0.112749734,0.007222349,0.120057384,0.541583343,Subject D,Focused
0.015931937,0.100283683,0.040292662,0.101150424,0.411014992,Subject D,Focused
0.015897256,0.089329424,0.082816475,0.073227722,0.203233463,Subject D,Focused
0.015860906,0.040784129,0.125746303,0.049328809,0.020519219,Subject D,Focused
0.015822898,-0.01909737,0.161905161,0.035727637,-0.042060386,Subject D,Focused
0.015783241,-0.041614816,0.18006582,0.031916944,0.019024518,Subject D,Focused
0.015741945,-0.024107503,0.172462877,0.035384752,0.102754561,Subject D,Focused
0.01569902,-0.012327211,0.145417972,0.042941277,0.087614338,Subject D,Focused
0.015654473,-0.041285385,0.119024485,0.049657458,-0.050150323,Subject D,Focused
0.015608312,-0.100812634,0.113809433,0.051365207,-0.204434962,Subject D,Focused
0.015560542,-0.16365641,0.134632039,0.049337881,-0.244822265,Subject D,Focused
0.015511171,-0.218824617,0.165555317,0.049814196,-0.151705473,Subject D,Focused
0.015460203,-0.261193116,0.181107964,0.057115356,-0.027410757,Subject D,Focused
0.01540764,-0.271841139,0.165285826,0.068159243,0.020396436,Subject D,Focused
0.015353486,-0.235374847,0.12344016,0.075144416,-0.019856958,Subject D,Focused
0.015297741,-0.170566794,0.078983406,0.073648283,-0.076924083,Subject D,Focused
0.015240406,-0.12512655,0.057386829,0.06708132,-0.080784521,Subject D,Focused
0.01518148,-0.139254415,0.066859611,0.062397435,-0.021653632,Subject D,Focused
0.015120963,-0.220181372,0.089464107,0.061980738,0.053545939,Subject D,Focused
0.015058851,-0.34350859,0.093887522,0.061291679,0.08589685,Subject D,Focused
0.014995142,-0.466156235,0.063780271,0.054576805,0.053770217,Subject D,Focused
0.014929831,-0.542331469,0.015714656,0.040619441,-0.009302236,Subject D,Focused
0.014862911,-0.544550368,-0.013879144,0.02200013,-0.046148561,Subject D,Focused
0.014794376,-0.480020748,-0.001689232,0.002104935,-0.029266322,Subject D,Focused
0.014724217,-0.38571095,0.042432701,-0.014030005,0.018625231,Subject D,Focused
0.014652426,-0.302451687,0.086509526,-0.018931562,0.055016072,Subject D,Focused
0.014578992,-0.248242188,0.104745612,-0.00858558,0.059025639,Subject D,Focused
0.014503906,-0.213732124,0.095526523,0.010079955,0.038860875,Subject D,Focused
0.014427158,-0.184955076,0.075348511,0.021973417,0.008794343,Subject D,Focused
0.014348738,-0.165942296,0.059086888,0.017084248,-0.028147317,Subject D,Focused
0.014268638,-0.165267537,0.048707978,0.000196109,-0.075355076,Subject D,Focused
0.014186846,-0.159329782,0.04004808,-0.013638336,-0.13219443,Subject D,Focused
0.014103353,-0.094160474,0.034511465,-0.013024668,-0.193405889,Subject D,Focused
0.014018151,0.053099662,0.03893488,-9.99e-05,-0.252353313,Subject D,Focused
0.013931231,0.224362398,0.056560806,0.012177882,-0.299969089,Subject D,Focused
0.013842586,0.318878035,0.084023461,0.01246123,-0.324875683,Subject D,Focused
0.013752206,0.287691215,0.115889354,0.001367832,-0.319769081,Subject D,Focused
0.013660083,0.175237544,0.144905746,-0.010489685,-0.286384711,Subject D,Focused
0.013566215,0.062463902,0.157435705,-0.014031719,-0.230760616,Subject D,Focused
0.013470597,-0.014586563,0.13873292,-0.009642571,-0.155381563,Subject D,Focused
0.013373223,-0.076650391,0.089819865,-0.004001447,-0.062572769,Subject D,Focused
0.013274082,-0.145555734,0.03413204,-0.001585172,0.033247305,Subject D,Focused
0.013173167,-0.203576434,0.000350885,-0.000244412,0.108352371,Subject D,Focused
0.013070483,-0.217282626,8.38e-05,0.00629248,0.155908665,Subject D,Focused
0.012966038,-0.18542561,0.025544545,0.021955893,0.20080524,Subject D,Focused
0.012859827,-0.145312366,0.064333222,0.042907071,0.269872204,Subject D,Focused
0.012751823,-0.133628165,0.109134465,0.058500244,0.348727214,Subject D,Focused
0.012642003,-0.154815559,0.15336166,0.059744304,0.388260422,Subject D,Focused
0.012530394,-0.191310593,0.185296949,0.047673666,0.35856279,Subject D,Focused
0.012417059,-0.230532439,0.19387751,0.032054694,0.278188949,Subject D,Focused
0.012302008,-0.268553565,0.18073802,0.021565655,0.182072169,Subject D,Focused
0.012185141,-0.295271865,0.161593616,0.016656669,0.077327666,Subject D,Focused
0.012066346,-0.295874612,0.152484367,0.011956659,-0.054109246,Subject D,Focused
0.011945707,-0.270804322,0.156181165,0.003812714,-0.214034549,Subject D,Focused
0.011823517,-0.239124959,0.163769096,-0.005030148,-0.360834168,Subject D,Focused
0.011699914,-0.213715397,0.167871013,-0.007413277,-0.429831039,Subject D,Focused
0.011574507,-0.183237463,0.171200795,0.000861141,-0.385354958,Subject D,Focused
0.011446695,-0.129150466,0.179689565,0.01449319,-0.256667459,Subject D,Focused
0.011316636,-0.053978703,0.187695462,0.02112087,-0.12053739,Subject D,Focused
0.011185597,0.022606324,0.176495935,0.012963356,-0.041818108,Subject D,Focused
0.011054522,0.095368937,0.134992364,-0.004077656,-0.025095212,Subject D,Focused
0.010922028,0.178776566,0.079326658,-0.014791895,-0.020781667,Subject D,Focused
0.01078511,0.267479073,0.041151133,-0.008132439,0.022983802,Subject D,Focused
0.010643476,0.314855537,0.033877624,0.014749728,0.112987305,Subject D,Focused
0.010502365,0.280944813,0.039761697,0.04442685,0.209836867,Subject D,Focused
0.010367355,0.190666946,0.034272873,0.071340214,0.267257986,Subject D,Focused
0.010234189,0.112363597,0.014358843,0.088982877,0.270693456,Subject D,Focused
0.0100884,0.083444752,-0.003220069,0.093618489,0.243406424,Subject D,Focused
0.009923638,0.087564466,-0.004355979,0.086529319,0.220895295,Subject D,Focused
0.009761679,0.097562662,0.008706548,0.076082288,0.217263652,Subject D,Focused
0.00964295,0.100549438,0.022045039,0.071883393,0.213012279,Subject D,Focused
0.009585571,0.079084958,0.022833334,0.074499343,0.179035821,Subject D,Focused
0.009556791,0.013988217,0.010768778,0.075041779,0.115859384,Subject D,Focused
0.00949675,-0.07185969,0.002279611,0.068367587,0.064834529,Subject D,Focused
0.009372699,-0.103092699,0.020324996,0.063398598,0.075746202,Subject D,Focused
0.009202762,-0.013925185,0.07126381,0.074548542,0.165251077,Subject D,Focused
0.009027374,0.187447999,0.129166609,0.102519429,0.307242941,Subject D,Focused
0.008868318,0.426656006,0.150739178,0.128820028,0.45197944,Subject D,Focused
0.008719259,0.620214196,0.114696488,0.133054351,0.543084077,Subject D,Focused
0.008565744,0.713598749,0.045749693,0.11373964,0.52970022,Subject D,Focused
0.008403532,0.68234766,-0.007832775,0.088438578,0.395144821,Subject D,Focused
0.008238225,0.525454978,-0.022261681,0.073967121,0.18644811,Subject D,Focused
0.008075086,0.270399936,-0.01745621,0.070770354,-0.004420133,Subject D,Focused
0.007913848,-0.018026791,-0.025978673,0.068251486,-0.107375157,Subject D,Focused
0.00775154,-0.245607278,-0.052283002,0.060746722,-0.121229943,Subject D,Focused
0.007586809,-0.328275018,-0.072544941,0.052658153,-0.095401087,Subject D,Focused
0.007420633,-0.246008081,-0.069169623,0.04890008,-0.077252792,Subject D,Focused
0.007254319,-0.061619724,-0.05084143,0.047056545,-0.078413218,Subject D,Focused
0.007088062,0.120486974,-0.036588324,0.042534718,-0.07733345,Subject D,Focused
0.006921304,0.21875032,-0.033317403,0.037213126,-0.046289786,Subject D,Focused
0.0067537,0.209890035,-0.036460936,0.037389903,0.017775708,Subject D,Focused
0.006585433,0.124376811,-0.043808541,0.043972768,0.084017534,Subject D,Focused
0.006416846,0.019827662,-0.057683091,0.049565428,0.112103886,Subject D,Focused
0.006248075,-0.052878039,-0.074919388,0.046804551,0.089847192,Subject D,Focused
0.006079058,-0.074029662,-0.084265113,0.037118896,0.051005261,Subject D,Focused
0.00590975,-0.051413193,-0.078263845,0.0297218,0.059415168,Subject D,Focused
0.005740216,0.002628859,-0.063211956,0.032555423,0.164878786,Subject D,Focused
0.005570574,0.079853537,-0.052126974,0.044099988,0.349381703,Subject D,Focused
0.005400912,0.161953921,-0.049649322,0.053133871,0.50655835,Subject D,Focused
0.005231266,0.214959352,-0.048288385,0.047248469,0.499936197,Subject D,Focused
0.005061671,0.21262202,-0.038736917,0.023625286,0.277742676,Subject D,Focused
0.004892183,0.162990783,-0.020462756,-0.00769902,-0.061998984,Subject D,Focused
0.004722874,0.102389811,-0.002447962,-0.031469003,-0.3384821,Subject D,Focused
0.004553808,0.060706164,0.004809464,-0.038101842,-0.43360528,Subject D,Focused
0.004385038,0.03445127,-0.001025217,-0.027989199,-0.374258543,Subject D,Focused
0.004216617,-0.006687862,-0.011981551,-0.008427006,-0.281388749,Subject D,Focused
0.004048598,-0.087643579,-0.019569395,0.010773174,-0.254934167,Subject D,Focused
0.003881036,-0.202060145,-0.026782194,0.020582413,-0.309495578,Subject D,Focused
0.003713989,-0.319572733,-0.046351165,0.017034842,-0.40104696,Subject D,Focused
0.003547506,-0.416058828,-0.085045803,0.00462958,-0.490284622,Subject D,Focused
0.003381638,-0.486053604,-0.132788139,-0.006729229,-0.565742481,Subject D,Focused
0.003216433,-0.52156363,-0.170171617,-0.009959126,-0.610866494,Subject D,Focused
0.003051938,-0.494901816,-0.185672063,-0.004878141,-0.57663491,Subject D,Focused
0.002888201,-0.382003594,-0.184022726,0.005853541,-0.41967406,Subject D,Focused
