timestamps,TP9,AF7,AF8,TP10,Subject,Emotion
-0.045947397,-2.236243576,0.831852542,-0.639582304,-2.814182532,Subject D,Focused
-0.046339066,-2.103038998,0.776026588,-0.624816072,-2.900818638,Subject D,Focused
-0.046724401,-1.950535421,0.736097921,-0.611537163,-2.999194188,Subject D,Focused
-0.047103447,-1.800052323,0.725836465,-0.603725208,-2.974353497,Subject D,Focused
-0.047476248,-1.678134067,0.749902818,-0.601526022,-2.788416278,Subject D,Focused
-0.047842845,-1.586945905,0.793918569,-0.598123681,-2.524853683,Subject D,Focused
-0.048203281,-1.495493059,0.824296179,-0.584781478,-2.294287705,Subject D,Focused
-0.048557597,-1.365304555,0.810328034,-0.56005199,-2.134128526,Subject D,Focused
-0.048905836,-1.179322335,0.752678834,-0.532415797,-1.99753571,Subject D,Focused
-0.049248037,-0.947787797,0.685157051,-0.513126391,-1.82422923,Subject D,Focused
-0.049584243,-0.708242144,0.642101433,-0.506474305,-1.614291491,Subject D,Focused
-0.049914493,-0.527706634,0.623933415,-0.505938366,-1.429971436,Subject D,Focused
-0.050238828,-0.466824405,0.598131646,-0.499098117,-1.318433534,Subject D,Focused
-0.050557288,-0.501491317,0.534295087,-0.478323251,-1.236070847,Subject D,Focused
-0.050869912,-0.498546305,0.4351092,-0.449050835,-1.068283841,Subject D,Focused
-0.051176736,-0.320013628,0.33348226,-0.426089261,-0.733901127,Subject D,Focused
-0.051477798,0.03958985,0.264899223,-0.418417988,-0.26060072,Subject D,Focused
-0.051773133,0.450063879,0.2424803,-0.418296474,0.242183901,Subject D,Focused
-0.052062775,0.779501826,0.248563223,-0.409480189,0.664043811,Subject D,Focused
-0.052346755,0.992994673,0.243072798,-0.387006192,0.945046855,Subject D,Focused
-0.052625106,1.115342038,0.187695388,-0.364565708,1.084542146,Subject D,Focused
-0.052897857,1.162155709,0.076427377,-0.35892969,1.137860848,Subject D,Focused
-0.053165036,1.164209751,-0.052566726,-0.369172871,1.201789785,Subject D,Focused
-0.053426672,1.220668376,-0.143002459,-0.375774229,1.367573434,Subject D,Focused
-0.053682789,1.435371897,-0.168742047,-0.361114938,1.655826149,Subject D,Focused
-0.053933412,1.773813542,-0.159989102,-0.327029318,1.988993966,Subject D,Focused
-0.054178563,2.047711194,-0.177797982,-0.289350921,2.240493117,Subject D,Focused
-0.054418262,2.095705084,-0.256867471,-0.259196184,2.331920438,Subject D,Focused
-0.054652526,1.95371826,-0.372091523,-0.236350441,2.294458241,Subject D,Focused
-0.054881371,1.798537695,-0.465066547,-0.219281583,2.231592579,Subject D,Focused
-0.05510481,1.736880645,-0.505095522,-0.210914822,2.216887411,Subject D,Focused
-0.055322855,1.708843916,-0.518600191,-0.209879012,2.237544047,Subject D,Focused
-0.055535515,1.614769029,-0.553712191,-0.204966929,2.247341918,Subject D,Focused
-0.055742799,1.479419658,-0.62301151,-0.186792121,2.257747051,Subject D,Focused
-0.055944714,1.431879262,-0.693306433,-0.160533024,2.341679928,Subject D,Focused
-0.056141264,1.536312891,-0.729559844,-0.13945618,2.533667163,Subject D,Focused
-0.056332451,1.701243155,-0.73175406,-0.12849842,2.751136678,Subject D,Focused
-0.056518279,1.780341353,-0.720526796,-0.121378524,2.851591133,Subject D,Focused
-0.056698748,1.734128144,-0.700549104,-0.112384094,2.781180645,Subject D,Focused
-0.056873858,1.660918202,-0.656256471,-0.103484552,2.647486967,Subject D,Focused
-0.057043608,1.670370155,-0.584785686,-0.098498306,2.617439521,Subject D,Focused
-0.057207998,1.751303545,-0.51979961,-0.096130502,2.741878747,Subject D,Focused
-0.057367027,1.783820131,-0.511061837,-0.092138993,2.907699251,Subject D,Focused
-0.057520691,1.67517293,-0.577433125,-0.085462032,2.971885813,Subject D,Focused
-0.057668987,1.45827641,-0.681705607,-0.079052549,2.908686438,Subject D,Focused
-0.057811911,1.250923259,-0.754252163,-0.075444913,2.800327599,Subject D,Focused
-0.057949459,1.146649414,-0.745299344,-0.073274859,2.718245123,Subject D,Focused
-0.058081626,1.162478866,-0.65978523,-0.068318937,2.662815824,Subject D,Focused
-0.058208408,1.260791338,-0.546894371,-0.058227978,2.610891661,Subject D,Focused
-0.058329797,1.377915293,-0.459252392,-0.047155837,2.571080487,Subject D,Focused
-0.058445787,1.438775251,-0.420542001,-0.04448478,2.567054611,Subject D,Focused
-0.05855637,1.395757596,-0.422467091,-0.055708891,2.5873009,Subject D,Focused
-0.058661535,1.280286779,-0.440191209,-0.073990229,2.58230114,Subject D,Focused
-0.058761274,1.188018288,-0.448392273,-0.084153384,2.517799008,Subject D,Focused
-0.058855574,1.180048979,-0.433404567,-0.07712127,2.412746261,Subject D,Focused
-0.058944422,1.208233063,-0.400975924,-0.057896342,2.312196124,Subject D,Focused
-0.059027807,1.164804865,-0.372213472,-0.03714011,2.236108852,Subject D,Focused
-0.059105714,1.00251041,-0.364827133,-0.018574357,2.168896841,Subject D,Focused
-0.059178129,0.781986857,-0.375468633,-0.000316349,2.084991965,Subject D,Focused
-0.059245036,0.600513211,-0.384946793,0.012763183,1.966684975,Subject D,Focused
-0.059306422,0.499686848,-0.383771467,0.006666398,1.810979251,Subject D,Focused
-0.059362273,0.451239221,-0.386669698,-0.026269103,1.642320842,Subject D,Focused
-0.059412575,0.4071053,-0.41401548,-0.073011958,1.510747751,Subject D,Focused
-0.059457317,0.341475129,-0.460744798,-0.107022168,1.453378685,Subject D,Focused
-0.059496487,0.259207513,-0.493677896,-0.111346765,1.454690954,Subject D,Focused
-0.059530076,0.188259473,-0.485753743,-0.093269742,1.456147605,Subject D,Focused
-0.059558075,0.157332956,-0.449133924,-0.075692285,1.40433423,Subject D,Focused
-0.059580479,0.158249794,-0.426112261,-0.074371719,1.284874223,Subject D,Focused
-0.059597281,0.135294034,-0.443960369,-0.084342873,1.121346316,Subject D,Focused
-0.059608479,0.039771073,-0.483969381,-0.089938215,0.957582387,Subject D,Focused
-0.05961407,-0.09665331,-0.501082102,-0.086584624,0.834365109,Subject D,Focused
-0.059614053,-0.167219404,-0.471908538,-0.08678897,0.760449762,Subject D,Focused
-0.059608427,-0.097252382,-0.417725846,-0.101460177,0.70039743,Subject D,Focused
-0.059597195,0.048432331,-0.381639577,-0.121549409,0.608514544,Subject D,Focused
-0.059580356,0.086428669,-0.388857596,-0.12672229,0.485621886,Subject D,Focused
-0.059557912,-0.129992655,-0.42821519,-0.110775422,0.388589718,Subject D,Focused
-0.059529868,-0.569158448,-0.465565776,-0.089356021,0.368835378,Subject D,Focused
-0.059496225,-1.043152009,-0.473133517,-0.080333223,0.408607998,Subject D,Focused
-0.05945699,-1.369721977,-0.450037238,-0.08476262,0.431896352,Subject D,Focused
-0.059412168,-1.500734007,-0.417244611,-0.092233436,0.376387192,Subject D,Focused
-0.059361765,-1.502124915,-0.393643256,-0.098312574,0.247069304,Subject D,Focused
-0.059305791,-1.449969867,-0.379949158,-0.108454171,0.102812838,Subject D,Focused
-0.059244253,-1.377445836,-0.366006266,-0.126286456,-0.000720322,Subject D,Focused
-0.059177163,-1.304143969,-0.346104932,-0.145269082,-0.051926539,Subject D,Focused
-0.059104531,-1.266094201,-0.32121367,-0.15478596,-0.072669441,Subject D,Focused
-0.05902637,-1.288604991,-0.292214943,-0.152179394,-0.081684514,Subject D,Focused
-0.058942694,-1.345356425,-0.259883793,-0.146162139,-0.083712099,Subject D,Focused
-0.058853516,-1.37325364,-0.229582392,-0.147280519,-0.088545005,Subject D,Focused
-0.058758854,-1.335014648,-0.208195314,-0.155576861,-0.114858181,Subject D,Focused
-0.058658725,-1.254590176,-0.195269888,-0.160081105,-0.164767952,Subject D,Focused
-0.058553151,-1.184453259,-0.181246051,-0.152129661,-0.211950966,Subject D,Focused
-0.058442152,-1.150213654,-0.156424125,-0.136774838,-0.228335275,Subject D,Focused
-0.058325752,-1.139545091,-0.122189752,-0.127121884,-0.213721007,Subject D,Focused
-0.058203976,-1.134987403,-0.094220784,-0.128133788,-0.190768498,Subject D,Focused
-0.058076851,-1.135630033,-0.093183799,-0.131199254,-0.17845068,Subject D,Focused
-0.057944406,-1.143620115,-0.128280586,-0.126591299,-0.176869374,Subject D,Focused
-0.05780667,-1.149686191,-0.186490674,-0.116494731,-0.172284129,Subject D,Focused
-0.057663674,-1.149677497,-0.237524465,-0.11124866,-0.152179906,Subject D,Focused
-0.057515453,-1.167864115,-0.253807894,-0.115219713,-0.118183974,Subject D,Focused
-0.057362037,-1.236560262,-0.232832228,-0.121748244,-0.08462828,Subject D,Focused
-0.057203462,-1.338440627,-0.201826969,-0.122569092,-0.062615761,Subject D,Focused
-0.057039762,-1.391797888,-0.195063668,-0.118392018,-0.052330788,Subject D,Focused
-0.056870972,-1.327159372,-0.222841235,-0.117735227,-0.058349308,Subject D,Focused
-0.056697128,-1.177131013,-0.265104876,-0.125963164,-0.099473891,Subject D,Focused
-0.056518267,-1.056250815,-0.296209456,-0.137513701,-0.179098652,Subject D,Focused
-0.056334425,-1.038254338,-0.310558821,-0.141157104,-0.247264198,Subject D,Focused
-0.056145641,-1.082902106,-0.319472146,-0.133015316,-0.227519461,Subject D,Focused
-0.055951949,-1.109598005,-0.326613313,-0.121115611,-0.109905149,Subject D,Focused
-0.055753388,-1.115709669,-0.316871629,-0.115196629,-0.001824663,Subject D,Focused
-0.055549992,-1.171932941,-0.276564076,-0.115498535,-0.044360433,Subject D,Focused
-0.055341801,-1.300173751,-0.218840069,-0.115058669,-0.258408222,Subject D,Focused
-0.055128853,-1.410031082,-0.176230564,-0.110255349,-0.494981388,Subject D,Focused
-0.054911186,-1.392156157,-0.166126255,-0.104290948,-0.565494587,Subject D,Focused
-0.054688841,-1.250284432,-0.174288589,-0.100927636,-0.417458597,Subject D,Focused
-0.054461855,-1.100737528,-0.175817172,-0.099372111,-0.160931918,Subject D,Focused
-0.054230269,-1.042804684,-0.161660057,-0.097120373,0.068340095,Subject D,Focused
-0.05399412,-1.063227574,-0.138974145,-0.095536099,0.227055714,Subject D,Focused
-0.053753447,-1.082054881,-0.116355134,-0.100394112,0.330119553,Subject D,Focused
-0.053508288,-1.066257635,-0.099364511,-0.1166523,0.353916102,Subject D,Focused
-0.053258679,-1.064725557,-0.094835622,-0.142242427,0.245884137,Subject D,Focused
-0.053004654,-1.129454694,-0.107732699,-0.165950248,0.033502531,Subject D,Focused
-0.052746248,-1.232222048,-0.132960062,-0.172660623,-0.139769562,Subject D,Focused
-0.052483492,-1.287697033,-0.157156347,-0.154728837,-0.136210277,Subject D,Focused
-0.052216416,-1.257106795,-0.169821135,-0.120722349,0.028304243,Subject D,Focused
-0.051945049,-1.201028657,-0.168857715,-0.091304433,0.192051224,Subject D,Focused
-0.051669419,-1.208393318,-0.156162575,-0.083444064,0.211915342,Subject D,Focused
-0.051389551,-1.284533982,-0.13403449,-0.097093785,0.100241533,Subject D,Focused
-0.051105467,-1.338091715,-0.108671478,-0.116333435,-0.013011882,Subject D,Focused
-0.050817189,-1.285532388,-0.092392372,-0.122542556,-0.031091562,Subject D,Focused
-0.050524739,-1.146852635,-0.095717765,-0.107724926,0.022705263,Subject D,Focused
-0.050228137,-1.023686673,-0.116002867,-0.078804114,0.053175962,Subject D,Focused
-0.049927401,-0.996489136,-0.138158285,-0.051467528,-0.008288867,Subject D,Focused
-0.049622549,-1.058513738,-0.150309878,-0.03839554,-0.151516338,Subject D,Focused
-0.049313596,-1.143072675,-0.157913945,-0.040385535,-0.300124121,Subject D,Focused
-0.049000559,-1.198742544,-0.178668557,-0.048016027,-0.372838983,Subject D,Focused
-0.048683448,-1.232993238,-0.220704371,-0.05293195,-0.35989946,Subject D,Focused
-0.048362274,-1.287659862,-0.266901059,-0.056519904,-0.33629074,Subject D,Focused
-0.048037047,-1.379796135,-0.285584011,-0.064739277,-0.370807036,Subject D,Focused
-0.047707775,-1.475022679,-0.260903901,-0.07562328,-0.433557327,Subject D,Focused
-0.047374464,-1.521876094,-0.211938621,-0.077927234,-0.436943955,Subject D,Focused
-0.047037117,-1.506775313,-0.17753228,-0.064894799,-0.366044696,Subject D,Focused
-0.046695737,-1.469589628,-0.179459124,-0.044785226,-0.316978794,Subject D,Focused
-0.046350325,-1.465069011,-0.201925095,-0.033287988,-0.380280073,Subject D,Focused
-0.046000881,-1.509954817,-0.210491367,-0.037672631,-0.514412691,Subject D,Focused
-0.045647403,-1.568545787,-0.190650809,-0.0525489,-0.576094747,Subject D,Focused
-0.045289887,-1.590924399,-0.163094714,-0.069867623,-0.48893271,Subject D,Focused
-0.044928329,-1.561229175,-0.159224473,-0.087870998,-0.356399068,Subject D,Focused
-0.044562721,-1.504317831,-0.186498025,-0.108923741,-0.372488328,Subject D,Focused
-0.044193057,-1.457059126,-0.222826565,-0.132700444,-0.621548074,Subject D,Focused
-0.043819327,-1.452390121,-0.243390919,-0.154374973,-0.993775653,Subject D,Focused
-0.043441526,-1.524370931,-0.246979006,-0.167716771,-1.292193041,Subject D,Focused
-0.043059646,-1.693495237,-0.252430785,-0.16856246,-1.385300703,Subject D,Focused
-0.042673678,-1.926741083,-0.272201629,-0.157676904,-1.261490853,Subject D,Focused
-0.042283617,-2.132215108,-0.296401033,-0.142141961,-1.004166251,Subject D,Focused
-0.041889456,-2.224226801,-0.30523247,-0.131706903,-0.759024699,Subject D,Focused
-0.041491185,-2.195486676,-0.291346589,-0.130748666,-0.674173794,Subject D,Focused
-0.041088797,-2.104696796,-0.264782232,-0.134015917,-0.781310963,Subject D,Focused
-0.040682285,-1.994164519,-0.239359742,-0.132266686,-0.9207456,Subject D,Focused
-0.040271642,-1.851999311,-0.220351666,-0.122392807,-0.856622896,Subject D,Focused
-0.03985686,-1.668708774,-0.205284147,-0.110342324,-0.519994966,Subject D,Focused
-0.039437931,-1.494208303,-0.191835415,-0.103456312,-0.104957395,Subject D,Focused
-0.039014848,-1.398909538,-0.182056528,-0.102190992,0.12536937,Subject D,Focused
-0.038587602,-1.387523816,-0.180434082,-0.101534988,0.106446308,Subject D,Focused
-0.038156187,-1.387721762,-0.191141559,-0.098427019,-0.003352606,Subject D,Focused
-0.037720592,-1.336707444,-0.21738285,-0.093588928,-0.046359499,Subject D,Focused
-0.037280812,-1.260959386,-0.258700875,-0.086534614,-0.040022836,Subject D,Focused
-0.036836838,-1.247806373,-0.305089324,-0.073963759,-0.099590532,Subject D,Focused
-0.036388661,-1.332144138,-0.33706974,-0.055179395,-0.23989,Subject D,Focused
-0.035936277,-1.430133062,-0.337868503,-0.035210662,-0.329227764,Subject D,Focused
-0.035479679,-1.414097678,-0.306241656,-0.019569362,-0.257200011,Subject D,Focused
-0.035018864,-1.256378713,-0.254621535,-0.008485706,-0.086229367,Subject D,Focused
-0.034553826,-1.070754924,-0.197881988,0.00054491,0.025547752,Subject D,Focused
-0.034084566,-0.997461212,-0.150657639,0.006703475,0.023253648,Subject D,Focused
-0.033611081,-1.0722197,-0.131754565,0.007319066,0.002968868,Subject D,Focused
-0.033133375,-1.227514696,-0.155389961,0.006120198,0.065872418,Subject D,Focused
-0.032651447,-1.392595281,-0.210081798,0.014480294,0.202338935,Subject D,Focused
-0.0321653,-1.548160161,-0.257405829,0.038647251,0.337304315,Subject D,Focused
-0.031674942,-1.687398312,-0.265419056,0.0669044,0.414396883,Subject D,Focused
-0.031180377,-1.771793804,-0.241159742,0.07645527,0.396354588,Subject D,Focused
-0.030681613,-1.757405187,-0.220807944,0.057453378,0.253393457,Subject D,Focused
-0.030178658,-1.652393776,-0.22924408,0.027518098,0.022331279,Subject D,Focused
-0.029671518,-1.521086198,-0.256460196,0.017362376,-0.165333477,Subject D,Focused
-0.029160206,-1.42313054,-0.270474407,0.040539236,-0.202033348,Subject D,Focused
-0.028644743,-1.362236366,-0.245213381,0.079164752,-0.143571871,Subject D,Focused
-0.028125146,-1.307722142,-0.180399956,0.100678935,-0.144256247,Subject D,Focused
-0.027601423,-1.257543882,-0.106273392,0.088136769,-0.241612728,Subject D,Focused
-0.02707358,-1.254201833,-0.066300704,0.053988098,-0.306171543,Subject D,Focused
-0.02654164,-1.324488452,-0.079919872,0.025770474,-0.252521648,Subject D,Focused
-0.02600565,-1.419098945,-0.119676943,0.0200011,-0.191407196,Subject D,Focused
-0.025465655,-1.441237959,-0.138919385,0.030274144,-0.26861743,Subject D,Focused
-0.024921652,-1.347982409,-0.126343524,0.039453563,-0.429224385,Subject D,Focused
-0.024373608,-1.207365105,-0.118633948,0.040014498,-0.476406901,Subject D,Focused
-0.023821541,-1.130033222,-0.150005705,0.038087426,-0.336012746,Subject D,Focused
-0.023265587,-1.145894018,-0.202278305,0.038686975,-0.135921495,Subject D,Focused
-0.022705894,-1.181932641,-0.223437927,0.037362508,-0.031144184,Subject D,Focused
-0.022142421,-1.179016942,-0.194596869,0.034712014,-0.077363291,Subject D,Focused
-0.021574917,-1.187457327,-0.157539511,0.049660948,-0.285273523,Subject D,Focused
-0.021003295,-1.288557403,-0.161103575,0.098765813,-0.645975628,Subject D,Focused
-0.020427998,-1.441186297,-0.193572234,0.160172642,-1.018710457,Subject D,Focused
-0.019849683,-1.496788001,-0.194586139,0.179837335,-1.112911353,Subject D,Focused
-0.01926825,-1.399371538,-0.135988004,0.129678774,-0.739816673,Subject D,Focused
-0.018682496,-1.287330842,-0.062767667,0.048020842,-0.076466558,Subject D,Focused
-0.018091542,-1.323275468,-0.035254294,0.0035544,0.433919054,Subject D,Focused
-0.017496842,-1.47791722,-0.049182133,0.022245761,0.469494465,Subject D,Focused
-0.016901471,-1.576584187,-0.04266189,0.065553044,0.064264409,Subject D,Focused
-0.016305799,-1.537153088,0.017551552,0.081291512,-0.488665048,Subject D,Focused
-0.015704669,-1.458822727,0.083671451,0.061646499,-0.835761866,Subject D,Focused
-0.015092586,-1.458811275,0.07761261,0.044291867,-0.717782212,Subject D,Focused
-0.014473897,-1.520186889,-0.014898174,0.063658815,-0.159741525,Subject D,Focused
-0.013863164,-1.564926574,-0.117384333,0.110069102,0.423939369,Subject D,Focused
-0.01326683,-1.607163608,-0.134338765,0.139368521,0.519232266,Subject D,Focused
-0.012663222,-1.732512555,-0.044271142,0.120330024,0.054122957,Subject D,Focused
-0.012012014,-1.94382915,0.082755051,0.067783187,-0.472943264,Subject D,Focused
-0.011295192,-2.129366504,0.156633282,0.025876678,-0.542155671,Subject D,Focused
-0.010545617,-2.201485048,0.149310111,0.022084171,-0.190315614,Subject D,Focused
-0.009823259,-2.182400942,0.105972503,0.044447754,0.09375009,Subject D,Focused
-0.009160981,-2.129306878,0.0860061,0.063231001,-0.051162218,Subject D,Focused
-0.008540776,-2.063820657,0.105732243,0.06433779,-0.555242165,Subject D,Focused
-0.007922326,-2.019613694,0.13994395,0.054971862,-1.118098177,Subject D,Focused
-0.007283971,-2.073864691,0.164577069,0.045144467,-1.495322691,Subject D,Focused
-0.006632167,-2.251692545,0.180623057,0.036298244,-1.577434201,Subject D,Focused
-0.005981492,-2.444039825,0.196851705,0.026065502,-1.381266451,Subject D,Focused
-0.00533631,-2.503629609,0.207830212,0.012055669,-1.055157445,Subject D,Focused
-0.004691148,-2.420564865,0.200890114,-0.010101181,-0.806889735,Subject D,Focused
-0.004040871,-2.347831529,0.175479742,-0.041603708,-0.770461878,Subject D,Focused
-0.003385874,-2.442626396,0.143019347,-0.070618734,-0.97017538,Subject D,Focused
-0.002729258,-2.711164429,0.11109845,-0.07716319,-1.373926817,Subject D,Focused
-0.002072504,-3.009732569,0.079570799,-0.053804355,-1.874775744,Subject D,Focused
-0.001414766,-3.171104818,0.054056381,-0.017204394,-2.233620095,Subject D,Focused
-0.00075487,-3.126679704,0.052374427,0.005735009,-2.198794318,Subject D,Focused
-9.27e-05,-2.932303601,0.086972962,0.001918419,-1.777142473,Subject D,Focused
0.000570905,-2.702113959,0.142797756,-0.019676076,-1.30232378,Subject D,Focused
0.001235615,-2.52641733,0.183710428,-0.040262888,-1.122267171,Subject D,Focused
0.001901434,-2.440909275,0.186379705,-0.047388358,-1.246696727,Subject D,Focused
0.00256857,-2.443722257,0.161721843,-0.041685118,-1.396812071,Subject D,Focused
0.003237028,-2.51102471,0.137129848,-0.033908711,-1.382731784,Subject D,Focused
0.003906616,-2.591101308,0.123839645,-0.034609544,-1.314923923,Subject D,Focused
0.004577156,-2.608861825,0.111783634,-0.041898007,-1.406048638,Subject D,Focused
0.005248585,-2.504788049,0.092887042,-0.041617613,-1.651025989,Subject D,Focused
0.00592089,-2.27535694,0.074265916,-0.02481928,-1.784104374,Subject D,Focused
0.006594026,-1.972935191,0.063924721,-0.00040284,-1.552137633,Subject D,Focused
0.007267898,-1.678958703,0.056507344,0.018372501,-0.999778566,Subject D,Focused
0.007942409,-1.482061468,0.042794025,0.035400315,-0.468571712,Subject D,Focused
0.008617482,-1.44592838,0.025366405,0.065373129,-0.304893277,Subject D,Focused
0.009293054,-1.550725099,0.014631953,0.104424601,-0.55806664,Subject D,Focused
0.009969055,-1.667205771,0.013706436,0.123511929,-0.953869411,Subject D,Focused
0.010645404,-1.637983543,0.018197344,0.10209333,-1.15223264,Subject D,Focused
0.011322017,-1.419639172,0.030043977,0.058271939,-1.032473025,Subject D,Focused
0.011998811,-1.127564166,0.058196118,0.031420716,-0.746188345,Subject D,Focused
0.012675708,-0.910548322,0.099100543,0.038885682,-0.516589125,Subject D,Focused
0.013352628,-0.798844964,0.12766566,0.062891488,-0.416510742,Subject D,Focused
0.014029488,-0.722453349,0.120264992,0.079242158,-0.365123323,Subject D,Focused
0.014706202,-0.668010866,0.083085398,0.085137727,-0.30854802,Subject D,Focused
0.015382685,-0.731340431,0.046198099,0.09264831,-0.320742834,Subject D,Focused
0.016058849,-0.956796926,0.028409115,0.103742053,-0.492828605,Subject D,Focused
0.016734607,-1.177190144,0.017109691,0.103362668,-0.78262721,Subject D,Focused
