timestamps,TP9,AF7,AF8,TP10,Subject,Emotion
-0.020769268,-0.64204364,0.411354819,0.012378114,0.421776923,Subject B,Focused
-0.020881318,-0.214072535,0.382517981,-0.028560608,0.370034931,Subject B,Focused
-0.020987805,0.459442406,0.377010068,-0.070415595,0.319272476,Subject B,Focused
-0.021089165,0.619623819,0.376731142,-0.09570762,0.284022917,Subject B,Focused
-0.021185306,0.169140272,0.356328675,-0.093702666,0.268629298,Subject B,Focused
-0.021275978,-0.220521014,0.315439928,-0.072958082,0.278534066,Subject B,Focused
-0.021361144,-0.007716923,0.28020206,-0.054854227,0.303376002,Subject B,Focused
-0.02144096,0.511967714,0.272166721,-0.052675052,0.300858393,Subject B,Focused
-0.021515572,0.626175309,0.284531513,-0.060122861,0.231147007,Subject B,Focused
-0.021585019,0.185500831,0.297539962,-0.060802254,0.126180207,Subject B,Focused
-0.021649285,-0.176090438,0.309165382,-0.046479542,0.096484332,Subject B,Focused
-0.021708393,0.109694079,0.330529319,-0.026071179,0.22042969,Subject B,Focused
-0.021762416,0.750203791,0.34825436,-0.018900918,0.420736259,Subject B,Focused
-0.021811434,0.923408075,0.319189828,-0.038472275,0.498336797,Subject B,Focused
-0.021855506,0.326537805,0.228343715,-0.078800061,0.327774206,Subject B,Focused
-0.021894678,-0.425693604,0.136310675,-0.114701383,0.003470987,Subject B,Focused
-0.021929003,-0.57585065,0.128023651,-0.119659124,-0.243826312,Subject B,Focused
-0.021958547,-0.157296707,0.205444282,-0.089331031,-0.274424055,Subject B,Focused
-0.021983379,0.120152778,0.267552661,-0.047068636,-0.152604963,Subject B,Focused
-0.022003569,-0.158151475,0.222536898,-0.020801401,-0.031835487,Subject B,Focused
-0.022019183,-0.587842939,0.096136091,-0.014798762,0.024117555,Subject B,Focused
-0.022030288,-0.536066647,-0.002896952,-0.011773481,0.064120035,Subject B,Focused
-0.022036959,-0.015023699,-0.011602902,-0.003321641,0.119576224,Subject B,Focused
-0.022039269,0.336772697,0.027332961,-0.005447342,0.123955458,Subject B,Focused
-0.022037295,0.113325727,0.03286421,-0.03429226,0.002345203,Subject B,Focused
-0.022031113,-0.330095645,-0.019766892,-0.074916313,-0.194423602,Subject B,Focused
-0.022020799,-0.379544138,-0.084022387,-0.090133005,-0.313913619,Subject B,Focused
-0.022006431,-0.006515301,-0.101586618,-0.063417435,-0.28106083,Subject B,Focused
-0.021988091,0.188651201,-0.058051373,-0.021534174,-0.201973573,Subject B,Focused
-0.021965858,-0.198983111,0.017650801,-0.005728545,-0.236290011,Subject B,Focused
-0.021939815,-0.790538185,0.095064691,-0.026196846,-0.389225535,Subject B,Focused
-0.021910045,-0.878958003,0.172925674,-0.055925021,-0.499372192,Subject B,Focused
-0.02187663,-0.351332478,0.266793242,-0.067722107,-0.444103333,Subject B,Focused
-0.021839654,0.138731094,0.374035711,-0.063239366,-0.290392584,Subject B,Focused
-0.021799201,-0.008437768,0.461979752,-0.059145412,-0.196390342,Subject B,Focused
-0.021755357,-0.589878004,0.493793846,-0.05687247,-0.20677311,Subject B,Focused
-0.021708205,-0.891761282,0.460753262,-0.041422002,-0.213056376,Subject B,Focused
-0.02165783,-0.618261294,0.388151899,-0.008668659,-0.111968042,Subject B,Focused
-0.021604316,-0.229705987,0.317523146,0.021396141,0.062149367,Subject B,Focused
-0.02154775,-0.269201474,0.284414583,0.026621632,0.195124606,Subject B,Focused
-0.021488216,-0.607008555,0.29854202,0.009648825,0.242994651,Subject B,Focused
-0.021425802,-0.628514566,0.331926272,-0.006842552,0.269384342,Subject B,Focused
-0.021360593,-0.112271184,0.333983056,-0.008202219,0.333097425,Subject B,Focused
-0.021292677,0.402664461,0.277367684,-0.001242531,0.395119525,Subject B,Focused
-0.021222142,0.295607721,0.194267581,0.000416494,0.385213957,Subject B,Focused
-0.021149073,-0.291394207,0.153360999,-0.005343713,0.336424098,Subject B,Focused
-0.021073559,-0.592779204,0.186633601,-0.011200422,0.375928038,Subject B,Focused
-0.020995686,-0.205366415,0.242199028,-0.015495683,0.546546487,Subject B,Focused
-0.02091554,0.367379509,0.225010531,-0.025719478,0.693866358,Subject B,Focused
-0.020833209,0.353212986,0.093207731,-0.043483766,0.606708898,Subject B,Focused
-0.020748778,-0.286489973,-0.089635549,-0.052975348,0.26653372,Subject B,Focused
-0.020662335,-0.803936028,-0.203405857,-0.035498309,-0.107074598,Subject B,Focused
-0.020573965,-0.6310171,-0.17424763,0.001837723,-0.28350791,Subject B,Focused
-0.020483757,-0.095099005,-0.035775533,0.022582623,-0.250720929,Subject B,Focused
-0.020391794,0.043194866,0.098529925,-0.002387553,-0.185455409,Subject B,Focused
-0.020298165,-0.397294439,0.120244918,-0.05774464,-0.227309073,Subject B,Focused
-0.020202952,-0.790753298,0.000500308,-0.096799788,-0.337796219,Subject B,Focused
-0.020106242,-0.545349721,-0.196034366,-0.095570501,-0.387101282,Subject B,Focused
-0.020008119,0.109019666,-0.361296518,-0.080930521,-0.323920971,Subject B,Focused
-0.019908668,0.420796776,-0.416063651,-0.093308928,-0.211696793,Subject B,Focused
-0.019807974,0.097354754,-0.350186056,-0.129111135,-0.119711464,Subject B,Focused
-0.01970612,-0.328350522,-0.211122014,-0.13863307,-0.044643431,Subject B,Focused
-0.01960319,-0.216272082,-0.065850733,-0.085997337,0.038773029,Subject B,Focused
-0.019499268,0.33536786,0.030906033,0.003175309,0.103884542,Subject B,Focused
-0.019394436,0.628682148,0.053673124,0.065803683,0.104660683,Subject B,Focused
-0.019288774,0.294591148,0.014670689,0.066238006,0.065265335,Subject B,Focused
-0.019182364,-0.216041297,-0.039588446,0.025034173,0.078185438,Subject B,Focused
-0.019075283,-0.222559277,-0.054650433,-0.013455703,0.1911456,Subject B,Focused
-0.018967611,0.287937233,-0.010443514,-0.027048515,0.326942346,Subject B,Focused
-0.018859425,0.631474472,0.056931429,-0.024278156,0.350502477,Subject B,Focused
-0.018750801,0.314202493,0.086181244,-0.01887658,0.217514743,Subject B,Focused
-0.018641816,-0.312502636,0.052557792,-0.010236589,0.034972747,Subject B,Focused
-0.018532547,-0.489738333,-0.006700828,0.007824202,-0.041624476,Subject B,Focused
-0.018423068,-0.028114061,-0.036010383,0.028425755,0.034402714,Subject B,Focused
-0.018313456,0.443904586,-0.023988192,0.033226982,0.161239782,Subject B,Focused
-0.018203784,0.29273629,-0.010678904,0.014466084,0.207135813,Subject B,Focused
-0.018094124,-0.30311985,-0.034630661,-0.012503539,0.150352263,Subject B,Focused
-0.017984549,-0.603202881,-0.086550122,-0.024752509,0.083701008,Subject B,Focused
-0.017875128,-0.287960683,-0.121354751,-0.01690456,0.089017965,Subject B,Focused
-0.01776593,0.135540608,-0.10919215,-0.005188689,0.141398964,Subject B,Focused
-0.017657023,0.042264145,-0.068793683,-0.006667923,0.159354838,Subject B,Focused
-0.017548474,-0.451966441,-0.051984813,-0.019331733,0.127119979,Subject B,Focused
-0.017440348,-0.648514082,-0.094531653,-0.025721499,0.125937785,Subject B,Focused
-0.01733271,-0.22784202,-0.176887865,-0.013859442,0.236708334,Subject B,Focused
-0.017225623,0.292189351,-0.235252955,0.010378597,0.440839943,Subject B,Focused
-0.017119147,0.232752783,-0.22160295,0.032693748,0.635918148,Subject B,Focused
-0.017013343,-0.336405585,-0.154489598,0.046478561,0.733746129,Subject B,Focused
-0.016908272,-0.676880042,-0.099410757,0.054002712,0.722994457,Subject B,Focused
-0.016803992,-0.351602509,-0.096340818,0.054989121,0.643898878,Subject B,Focused
-0.01670056,0.204913993,-0.121802386,0.043991718,0.530646817,Subject B,Focused
-0.016598032,0.272231296,-0.130015936,0.0228911,0.397245139,Subject B,Focused
-0.016496462,-0.200347191,-0.113109186,0.007848679,0.270631388,Subject B,Focused
-0.016395903,-0.543873224,-0.102243697,0.014827572,0.206588742,Subject B,Focused
-0.016296406,-0.285243538,-0.120942596,0.040932012,0.241926132,Subject B,Focused
-0.016198024,0.208777706,-0.161199291,0.069137887,0.328658565,Subject B,Focused
-0.016100807,0.232603526,-0.203033066,0.091176509,0.351075577,Subject B,Focused
-0.016004804,-0.283882588,-0.232355359,0.115380465,0.243161057,Subject B,Focused
-0.015910062,-0.651390727,-0.232663794,0.1476237,0.075562615,Subject B,Focused
-0.015816629,-0.33785892,-0.182862503,0.173785476,-0.018726074,Subject B,Focused
-0.015724547,0.291574542,-0.082231241,0.171242145,-0.010712474,Subject B,Focused
-0.01563386,0.415227118,0.033332719,0.135759502,-0.018756088,Subject B,Focused
-0.015544607,-0.182260286,0.117500423,0.088232705,-0.155562893,Subject B,Focused
-0.01545683,-0.816124122,0.152430012,0.052932946,-0.370497647,Subject B,Focused
-0.015370566,-0.7642964,0.149829933,0.035532786,-0.49703715,Subject B,Focused
-0.015285853,-0.16405091,0.119503398,0.025966214,-0.445997892,Subject B,Focused
-0.015202726,0.211192082,0.056524456,0.017189904,-0.293929633,Subject B,Focused
-0.015121219,-0.023896613,-0.033632452,0.014561315,-0.161321137,Subject B,Focused
-0.015041365,-0.395726845,-0.113595638,0.028407196,-0.057600351,Subject B,Focused
-0.014963195,-0.259248098,-0.138876029,0.062384858,0.089017235,Subject B,Focused
-0.014886739,0.292096523,-0.106973825,0.108268972,0.259511136,Subject B,Focused
-0.014812026,0.527596896,-0.066229608,0.149023665,0.290954856,Subject B,Focused
-0.014739082,0.072472493,-0.06422705,0.170227217,0.062427185,Subject B,Focused
-0.014667934,-0.542550968,-0.094686752,0.173127402,-0.3029818,Subject B,Focused
-0.014598607,-0.545669948,-0.109399775,0.172963668,-0.513061418,Subject B,Focused
-0.014531123,0.054354953,-0.081844686,0.179268341,-0.408860308,Subject B,Focused
-0.014465508,0.456673905,-0.042138474,0.182877429,-0.132549584,Subject B,Focused
-0.014401782,0.109504888,-0.038019191,0.170943844,0.04858056,Subject B,Focused
-0.014339967,-0.561723179,-0.073621187,0.150971355,0.041294845,Subject B,Focused
-0.014280083,-0.703449625,-0.108762985,0.146815854,-0.013989762,Subject B,Focused
-0.014222149,-0.136202575,-0.117554529,0.167327681,0.036813856,Subject B,Focused
-0.014166179,0.438499115,-0.120136317,0.190091509,0.169312916,Subject B,Focused
-0.014112189,0.37617536,-0.142002602,0.185161398,0.245057196,Subject B,Focused
-0.014060191,-0.089656594,-0.165992607,0.149404637,0.198887923,Subject B,Focused
-0.014010197,-0.219085424,-0.155110557,0.108594541,0.081286385,Subject B,Focused
-0.013962216,0.204572691,-0.116030243,0.088882362,-0.063052403,Subject B,Focused
-0.013916258,0.586882431,-0.106432656,0.096123784,-0.26069475,Subject B,Focused
-0.013872327,0.351354535,-0.167230947,0.122836182,-0.515345286,Subject B,Focused
-0.013830431,-0.253356461,-0.269401477,0.162444594,-0.719799956,Subject B,Focused
-0.013790571,-0.467975551,-0.345571308,0.206533095,-0.74279634,Subject B,Focused
-0.01375275,-0.035078445,-0.360600915,0.233499312,-0.592875666,Subject B,Focused
-0.013716968,0.454494419,-0.331822921,0.215846654,-0.428753649,Subject B,Focused
-0.013683223,0.343385269,-0.290087434,0.148533851,-0.386411098,Subject B,Focused
-0.013651511,-0.229753623,-0.247764543,0.065109677,-0.437477784,Subject B,Focused
-0.013621825,-0.526277144,-0.207747915,0.014622347,-0.446082469,Subject B,Focused
-0.013594158,-0.185393231,-0.178303436,0.018357746,-0.339224946,Subject B,Focused
-0.0135685,0.311539241,-0.162294267,0.052223776,-0.185355437,Subject B,Focused
-0.013544838,0.285407006,-0.14414642,0.07225502,-0.106320896,Subject B,Focused
-0.013523157,-0.249361338,-0.106097516,0.053703653,-0.140586425,Subject B,Focused
-0.013503443,-0.611458035,-0.056387972,0.005584697,-0.21310739,Subject B,Focused
-0.013485674,-0.346447867,-0.027752146,-0.04458604,-0.229907084,Subject B,Focused
-0.01346983,0.190570984,-0.042969523,-0.072631566,-0.173167932,Subject B,Focused
-0.013455887,0.316298301,-0.08835081,-0.067969316,-0.091025126,Subject B,Focused
-0.013443818,-0.083044842,-0.125594221,-0.03458846,-0.01769823,Subject B,Focused
-0.013433596,-0.418076045,-0.126417591,0.00982246,0.065036368,Subject B,Focused
-0.01342519,-0.189086835,-0.094194859,0.039682166,0.186684324,Subject B,Focused
-0.013418569,0.34779907,-0.058833924,0.03702807,0.332813604,Subject B,Focused
-0.013413699,0.516238327,-0.055756959,0.007063967,0.446431283,Subject B,Focused
-0.013410544,0.108721249,-0.101290957,-0.02366983,0.47810274,Subject B,Focused
-0.013409069,-0.345483048,-0.174592187,-0.02920676,0.422077265,Subject B,Focused
-0.013409237,-0.284656601,-0.223510171,-0.007553567,0.303684675,Subject B,Focused
-0.013411009,0.143731248,-0.202993866,0.017526233,0.148009392,Subject B,Focused
-0.013414346,0.285810056,-0.117958703,0.021173787,-0.025127864,Subject B,Focused
-0.013419206,-0.146031087,-0.022740698,0.004934363,-0.185121348,Subject B,Focused
-0.013425548,-0.692873043,0.030563611,-0.005287133,-0.296396596,Subject B,Focused
-0.013433327,-0.761885514,0.040573577,0.008849008,-0.353414953,Subject B,Focused
-0.013442498,-0.408201288,0.04653972,0.036209666,-0.395288349,Subject B,Focused
-0.013453016,-0.239191329,0.073768839,0.05376842,-0.46310872,Subject B,Focused
-0.013464834,-0.566358389,0.102104448,0.059527298,-0.538064349,Subject B,Focused
-0.013477903,-0.944185238,0.094353539,0.075171239,-0.54063043,Subject B,Focused
-0.013492174,-0.739256196,0.046769307,0.114556271,-0.418677878,Subject B,Focused
-0.0135076,0.001530051,-0.001205469,0.159267835,-0.242849843,Subject B,Focused
-0.013524129,0.551419061,-0.007249125,0.171709019,-0.18163586,Subject B,Focused
-0.013541711,0.418896594,0.034912783,0.13033254,-0.340700265,Subject B,Focused
-0.013560296,-0.007806804,0.100281189,0.050215919,-0.626881917,Subject B,Focused
-0.013579832,0.040638437,0.163756081,-0.027499501,-0.804561626,Subject B,Focused
-0.013600267,0.695057868,0.214745225,-0.063799323,-0.702340434,Subject B,Focused
-0.013621548,1.243090121,0.247622029,-0.044285763,-0.35567059,Subject B,Focused
-0.013643623,1.029971354,0.255827117,0.017050548,0.046118363,Subject B,Focused
-0.013666437,0.30136539,0.242902949,0.089650602,0.323133362,Subject B,Focused
-0.013689938,-0.109306186,0.230040164,0.141568761,0.410774958,Subject B,Focused
-0.013714075,0.16691732,0.241099553,0.150582277,0.345646618,Subject B,Focused
-0.013738797,0.615255908,0.278284113,0.113349876,0.19528665,Subject B,Focused
-0.013764053,0.566543434,0.316356573,0.051376803,0.017170496,Subject B,Focused
-0.013789796,0.081350095,0.322701914,0.002625178,-0.131662901,Subject B,Focused
-0.013815977,-0.174103379,0.284594115,-0.003419259,-0.187116844,Subject B,Focused
-0.013842548,0.135685162,0.220542263,0.033207893,-0.127468557,Subject B,Focused
-0.013869461,0.538612202,0.165882881,0.086832426,-0.033318351,Subject B,Focused
-0.01389667,0.389551913,0.142653198,0.129141951,-0.037045649,Subject B,Focused
-0.013924129,-0.226613126,0.140856242,0.146984341,-0.161673029,Subject B,Focused
-0.013951791,-0.550817738,0.132974214,0.141371415,-0.247895227,Subject B,Focused
-0.013979608,-0.127549647,0.108504643,0.115767016,-0.115471956,Subject B,Focused
-0.014007533,0.578035455,0.087276181,0.069773415,0.205581627,Subject B,Focused
-0.014035516,0.753254716,0.093437234,0.004744992,0.476049321,Subject B,Focused
-0.014063509,0.261966029,0.12389404,-0.066838436,0.504616734,Subject B,Focused
-0.01409146,-0.214816737,0.152632865,-0.121411622,0.3484893,Subject B,Focused
-0.014119318,-0.087558235,0.16060885,-0.137246622,0.213847689,Subject B,Focused
-0.014147034,0.388935981,0.146211728,-0.109501022,0.194474465,Subject B,Focused
-0.014174554,0.490345794,0.107120319,-0.054010138,0.177329029,Subject B,Focused
-0.014201827,-0.000100834,0.032689711,0.002016143,0.016360647,Subject B,Focused
-0.014228802,-0.5091507,-0.072210885,0.033293734,-0.256727478,Subject B,Focused
-0.014255426,-0.437402141,-0.167986323,0.025307036,-0.44622684,Subject B,Focused
-0.014281648,0.058345689,-0.205847539,-0.022619917,-0.409695913,Subject B,Focused
-0.014307415,0.289229467,-0.1776489,-0.096649283,-0.213396213,Subject B,Focused
-0.014332674,-0.0555498,-0.129930583,-0.168847949,-0.042166364,Subject B,Focused
-0.014357372,-0.524424534,-0.119231894,-0.204483028,0.012904514,Subject B,Focused
-0.014381455,-0.533540315,-0.153676456,-0.1813719,0.018718207,Subject B,Focused
-0.01440487,-0.145186747,-0.184366569,-0.109871975,0.056118505,Subject B,Focused
-0.014427563,0.051821118,-0.157797503,-0.030251338,0.089783887,Subject B,Focused
-0.014449482,-0.220237331,-0.072852449,0.01693703,0.033521995,Subject B,Focused
-0.014470574,-0.52941504,0.019585394,0.019867593,-0.101121978,Subject B,Focused
-0.014490788,-0.331593329,0.069349224,-0.004313055,-0.197376539,Subject B,Focused
-0.014510074,0.24732865,0.069833956,-0.032109041,-0.175010503,Subject B,Focused
-0.014528382,0.528249195,0.05206461,-0.05045468,-0.079028686,Subject B,Focused
-0.014545663,0.170003354,0.052781107,-0.054268056,-0.002805293,Subject B,Focused
-0.01456187,-0.351548123,0.093132709,-0.038380361,0.031860703,Subject B,Focused
-0.014576958,-0.338328669,0.170908883,-0.000118316,0.071281958,Subject B,Focused
-0.014590879,0.222311304,0.256237385,0.051302937,0.123617952,Subject B,Focused
-0.014603585,0.628783851,0.301534415,0.09496264,0.116685867,Subject B,Focused
-0.014615029,0.366482343,0.275812664,0.112124787,-0.005352198,Subject B,Focused
-0.014625167,-0.229617279,0.195992259,0.099259884,-0.175232534,Subject B,Focused
-0.01463396,-0.417548306,0.115423476,0.067341742,-0.248378466,Subject B,Focused
-0.014641368,-0.020690357,0.077475486,0.031833909,-0.163643981,Subject B,Focused
-0.014647338,0.34863004,0.086944717,0.004586659,-0.011779097,Subject B,Focused
-0.014651814,0.118353086,0.125621072,-0.00901443,0.083906667,Subject B,Focused
-0.014654754,-0.454704548,0.179272418,-0.009572135,0.114195561,Subject B,Focused
-0.014656141,-0.599558724,0.23908402,-0.000690031,0.160109502,Subject B,Focused
-0.014655951,-0.053363326,0.288827202,0.01379393,0.245154445,Subject B,Focused
-0.014654113,0.566665825,0.308652986,0.028462639,0.285789812,Subject B,Focused
-0.014650518,0.551512816,0.292737282,0.034668794,0.213189514,Subject B,Focused
-0.014645113,0.009699269,0.252807035,0.026704824,0.087534083,Subject B,Focused
-0.014637954,-0.304369044,0.202282071,0.011399618,0.038782782,Subject B,Focused
-0.014629113,0.004092709,0.146257631,0.005222403,0.114519955,Subject B,Focused
-0.014618462,0.479303655,0.092464641,0.017128845,0.235298009,Subject B,Focused
-0.014605669,0.468071392,0.063634881,0.038389301,0.299853046,Subject B,Focused
-0.014590558,0.009534305,0.085009107,0.05399829,0.289626129,Subject B,Focused
-0.01457348,-0.231063805,0.154738267,0.059798906,0.249584549,Subject B,Focused
-0.014554999,0.128775341,0.233402212,0.062082661,0.20182175,Subject B,Focused
-0.014534921,0.667711004,0.270742053,0.064031373,0.125476531,Subject B,Focused
-0.014511943,0.717479822,0.245339083,0.061938295,0.021606607,Subject B,Focused
-0.014485089,0.249844514,0.180121627,0.055797571,-0.050794362,Subject B,Focused
-0.014455711,-0.079512515,0.124024084,0.054823477,-0.040678538,Subject B,Focused
-0.014426782,0.21692774,0.118849252,0.065698341,0.011695699,Subject B,Focused
-0.014398569,0.828893957,0.17347612,0.077765513,0.004036084,Subject B,Focused
-0.014365804,1.055705443,0.258191581,0.067614949,-0.100741522,Subject B,Focused
-0.014322886,0.703318822,0.323408121,0.02363476,-0.208985181,Subject B,Focused
-0.01427405,0.292912466,0.331608595,-0.036097233,-0.193946621,Subject B,Focused
-0.014233743,0.325873043,0.276599021,-0.077427398,-0.055711065,Subject B,Focused
-0.014208297,0.605680347,0.176903819,-0.084828605,0.053085418,Subject B,Focused
-0.014175922,0.537487896,0.060224957,-0.077490897,-0.010206479,Subject B,Focused
-0.014096177,0.004466666,-0.042458228,-0.085041096,-0.202180768,Subject B,Focused
-0.01395093,-0.385379949,-0.101347322,-0.110932601,-0.321495544,Subject B,Focused
-0.013772919,-0.071446614,-0.102476725,-0.130138516,-0.235515795,Subject B,Focused
-0.013621993,0.666601178,-0.057699248,-0.124768273,-0.050212104,Subject B,Focused
-0.013530889,0.984946757,0.007384072,-0.109248862,-0.007902536,Subject B,Focused
-0.013481474,0.518913302,0.073027476,-0.109743657,-0.214533216,Subject B,Focused
-0.013433303,-0.154440021,0.128084058,-0.127565203,-0.512585867,Subject B,Focused
-0.013364584,-0.251640395,0.161913819,-0.139308664,-0.647942876,Subject B,Focused
-0.013281644,0.235892437,0.167719616,-0.130643874,-0.532123981,Subject B,Focused
-0.013198928,0.586323952,0.154034122,-0.111471907,-0.303642864,Subject B,Focused
-0.013120666,0.334654487,0.141622553,-0.093243488,-0.144793882,Subject B,Focused
-0.013041251,-0.107397033,0.145246133,-0.068857737,-0.087008407,Subject B,Focused
-0.012955412,-0.002324596,0.164026383,-0.027483501,-0.020139569,Subject B,Focused
-0.012863411,0.730590988,0.188831206,0.020863081,0.136531003,Subject B,Focused
-0.012768216,1.3886224,0.209621769,0.050734593,0.32178156,Subject B,Focused
-0.012671174,1.367862404,0.214097606,0.050233159,0.402664696,Subject B,Focused
-0.012571304,0.899776632,0.191743994,0.033880113,0.323039741,Subject B,Focused
