timestamps,TP9,AF7,AF8,TP10,Subject,Emotion
-0.010582922,-0.038098718,0.00495289,-0.187047927,0.445096362,Subject C,Focused
-0.010666829,0.402780068,0.01511729,-0.266458576,0.683055366,Subject C,Focused
-0.010747648,0.76950919,0.019467732,-0.288189202,0.915231898,Subject C,Focused
-0.010825385,0.66120117,0.025667977,-0.2571419,0.88278266,Subject C,Focused
-0.010900052,0.283547468,0.028543461,-0.209708984,0.592765601,Subject C,Focused
-0.010971675,0.206505958,0.024141743,-0.172850513,0.338358531,Subject C,Focused
-0.01104028,0.618780806,0.020316725,-0.146623686,0.334932478,Subject C,Focused
-0.011105895,1.054289248,0.027439249,-0.122495357,0.466112922,Subject C,Focused
-0.01116854,0.970819254,0.046353198,-0.100126139,0.480103721,Subject C,Focused
-0.011228241,0.440309894,0.071952154,-0.078050241,0.348403758,Subject C,Focused
-0.011285025,0.054130206,0.10215813,-0.042376431,0.287911886,Subject C,Focused
-0.011338923,0.172540029,0.135102196,0.017898728,0.426646909,Subject C,Focused
-0.011389967,0.493441058,0.161024133,0.087240119,0.577064958,Subject C,Focused
-0.011438188,0.478068772,0.165920208,0.131218384,0.435589304,Subject C,Focused
-0.011483621,0.053516034,0.144343981,0.132943705,-0.02637729,Subject C,Focused
-0.0115263,-0.325100871,0.103955423,0.111954351,-0.474715802,Subject C,Focused
-0.011566263,-0.309874323,0.057467615,0.099534749,-0.568317392,Subject C,Focused
-0.011603547,-0.122262263,0.015322821,0.101158032,-0.343202116,Subject C,Focused
-0.011638192,-0.205536455,-0.012306464,0.093043447,-0.14603818,Subject C,Focused
-0.011670238,-0.545192715,-0.013704364,0.056341004,-0.190757983,Subject C,Focused
-0.01169973,-0.626375858,0.01453707,0.006300729,-0.297384976,Subject C,Focused
-0.011726711,-0.138743792,0.055908304,-0.019054482,-0.144945076,Subject C,Focused
-0.011751227,0.527261453,0.082968328,0.002343442,0.28812681,Subject C,Focused
-0.011773326,0.716359045,0.083973959,0.053989169,0.660075778,Subject C,Focused
-0.011793058,0.336280618,0.072432652,0.097155595,0.660233691,Subject C,Focused
-0.011810473,-0.023082484,0.062993639,0.106069603,0.364208646,Subject C,Focused
-0.011825623,0.153020922,0.04742758,0.085791815,0.110148159,Subject C,Focused
-0.011838559,0.660932388,0.006978546,0.060410883,0.070675243,Subject C,Focused
-0.011849331,0.86687559,-0.057537755,0.05067213,0.073369653,Subject C,Focused
-0.011857991,0.516559111,-0.122566085,0.063730198,-0.11751761,Subject C,Focused
-0.011864587,0.020341114,-0.16815252,0.09531838,-0.44893149,Subject C,Focused
-0.01186917,-0.104869337,-0.19655029,0.131172618,-0.626772908,Subject C,Focused
-0.011871788,0.117202736,-0.223759944,0.148081053,-0.497350072,Subject C,Focused
-0.011872488,0.198225395,-0.259956975,0.127793474,-0.253898823,Subject C,Focused
-0.011871318,-0.155868456,-0.298380537,0.079283706,-0.194250038,Subject C,Focused
-0.011868324,-0.662997445,-0.317905507,0.040233538,-0.353251256,Subject C,Focused
-0.011863553,-0.829959998,-0.298063431,0.044071486,-0.490851897,Subject C,Focused
-0.011857051,-0.574948883,-0.239780863,0.084045303,-0.430112646,Subject C,Focused
-0.011848862,-0.311148563,-0.173604745,0.117535895,-0.280832997,Subject C,Focused
-0.011839032,-0.401864198,-0.139237699,0.109652215,-0.262136176,Subject C,Focused
-0.011827606,-0.698839584,-0.148462349,0.06920133,-0.381714971,Subject C,Focused
-0.011814631,-0.757423572,-0.169241951,0.038857134,-0.410890719,Subject C,Focused
-0.011800152,-0.444925284,-0.152963467,0.052034117,-0.196529497,Subject C,Focused
-0.011784218,-0.138669116,-0.080134951,0.102311194,0.099069064,Subject C,Focused
-0.011766877,-0.227619589,0.022604753,0.15424437,0.162851823,Subject C,Focused
-0.01174818,-0.555347032,0.110738603,0.180734165,-0.082321759,Subject C,Focused
-0.011728177,-0.567654576,0.163147178,0.18752329,-0.354545487,Subject C,Focused
-0.011706918,-0.024921843,0.192754776,0.201316896,-0.327814881,Subject C,Focused
-0.011684453,0.640692224,0.220446202,0.236495654,-0.012873602,Subject C,Focused
-0.011660832,0.821722289,0.247827978,0.276629691,0.258121,Subject C,Focused
-0.011636107,0.465120128,0.261351162,0.289002226,0.219327666,Subject C,Focused
-0.011610329,0.09259661,0.258270126,0.255307737,-0.042513736,Subject C,Focused
-0.011583548,0.104682707,0.257731974,0.188323628,-0.228181074,Subject C,Focused
-0.011555815,0.30729983,0.281565742,0.121209666,-0.177084155,Subject C,Focused
-0.01152718,0.275058663,0.329138154,0.081292614,0.011727958,Subject C,Focused
-0.011497691,0.013501279,0.376945461,0.072148421,0.178392704,Subject C,Focused
-0.0114674,-0.022392269,0.401684665,0.078576738,0.297741508,Subject C,Focused
-0.011436357,0.40434415,0.399220079,0.085935156,0.421772624,Subject C,Focused
-0.011404612,0.890655302,0.381479511,0.091170228,0.515278712,Subject C,Focused
-0.011372216,0.846101956,0.360773833,0.095774797,0.468857556,Subject C,Focused
-0.011339219,0.2603597,0.340660552,0.09547826,0.284229675,Subject C,Focused
-0.011305672,-0.235589097,0.317738855,0.083639167,0.145676449,Subject C,Focused
-0.011271625,-0.127438211,0.285883286,0.0624433,0.228122887,Subject C,Focused
-0.011237128,0.36712573,0.240160557,0.043723851,0.465391581,Subject C,Focused
-0.011202231,0.604567733,0.183957065,0.037489384,0.591390088,Subject C,Focused
-0.011166986,0.329002597,0.133347357,0.043435908,0.432495374,Subject C,Focused
-0.011131444,-0.055559424,0.106879612,0.053434804,0.107225912,Subject C,Focused
-0.011095656,-0.066702008,0.105477317,0.057558944,-0.102262528,Subject C,Focused
-0.011059673,0.222069415,0.10511043,0.046875396,-0.053909061,Subject C,Focused
-0.011023549,0.323259054,0.075564488,0.015878912,0.113450694,Subject C,Focused
-0.010987333,0.026127745,0.009394312,-0.032344417,0.140208437,Subject C,Focused
-0.010951078,-0.305655458,-0.069711986,-0.083343882,-0.073194357,Subject C,Focused
-0.010914832,-0.214028672,-0.12876271,-0.119319874,-0.356633206,Subject C,Focused
-0.010878646,0.255380107,-0.151798784,-0.136371535,-0.447387218,Subject C,Focused
-0.010842566,0.622581825,-0.143300639,-0.152490406,-0.26994036,Subject C,Focused
-0.010806641,0.576339695,-0.116373696,-0.188367032,-0.010751946,Subject C,Focused
-0.010770917,0.293566824,-0.089646756,-0.235255789,0.097994076,Subject C,Focused
-0.01073544,0.105315429,-0.089885165,-0.252303656,0.031069164,Subject C,Focused
-0.010700255,0.033431581,-0.137932563,-0.20920907,-0.034772558,Subject C,Focused
-0.010665408,-0.166636518,-0.220973394,-0.129320703,0.046759298,Subject C,Focused
-0.010630941,-0.564480864,-0.286091534,-0.07647497,0.233542088,Subject C,Focused
-0.010596898,-0.863773372,-0.277970474,-0.093162319,0.382950784,Subject C,Focused
-0.010563318,-0.758329247,-0.194411578,-0.158667931,0.421927722,Subject C,Focused
-0.010530241,-0.382525257,-0.101172991,-0.21335713,0.364055339,Subject C,Focused
-0.010497705,-0.228632267,-0.078051726,-0.218456339,0.20202709,Subject C,Focused
-0.010465747,-0.556704269,-0.142764099,-0.18603632,-0.10671299,Subject C,Focused
-0.010434403,-1.018052808,-0.233531702,-0.156369255,-0.507062603,Subject C,Focused
-0.010403706,-1.031343474,-0.2709785,-0.157513604,-0.781094941,Subject C,Focused
-0.010373692,-0.514895184,-0.230912702,-0.188667086,-0.72305176,Subject C,Focused
-0.010344393,-0.048538461,-0.153422256,-0.232229196,-0.38535157,Subject C,Focused
-0.010315841,-0.190266635,-0.091940455,-0.271133447,-0.06084347,Subject C,Focused
-0.010288066,-0.767938614,-0.064403019,-0.293662998,0.030242824,Subject C,Focused
-0.010261097,-1.063907387,-0.0498718,-0.290421912,-0.026094792,Subject C,Focused
-0.010234962,-0.692930057,-0.021527016,-0.257372882,0.008330762,Subject C,Focused
-0.010209686,-0.064965226,0.022928916,-0.205199097,0.176543319,Subject C,Focused
-0.010185293,0.155541832,0.064168122,-0.159262332,0.25716201,Subject C,Focused
-0.010161807,-0.113640142,0.090530295,-0.141799333,0.085947687,Subject C,Focused
-0.010139247,-0.319977078,0.113847797,-0.152209683,-0.169960644,Subject C,Focused
-0.010117632,-0.044693981,0.148488545,-0.16805566,-0.196375199,Subject C,Focused
-0.010096978,0.446678217,0.1837523,-0.166326452,0.044241681,Subject C,Focused
-0.010077299,0.59185954,0.194318876,-0.142351335,0.242176258,Subject C,Focused
-0.010058608,0.306140581,0.179266128,-0.110662694,0.153808485,Subject C,Focused
-0.010040913,0.089700872,0.172844103,-0.092937928,-0.059301415,Subject C,Focused
-0.010024223,0.341625298,0.204718674,-0.104431222,-0.047804189,Subject C,Focused
-0.010008541,0.823584982,0.259528154,-0.144247179,0.239973841,Subject C,Focused
-0.009993869,0.984367305,0.291279294,-0.193189976,0.476845834,Subject C,Focused
-0.009980205,0.684365159,0.276554901,-0.223239757,0.395404104,Subject C,Focused
-0.009967546,0.347971825,0.239400529,-0.215367921,0.140567798,Subject C,Focused
-0.009955886,0.367704915,0.217555069,-0.173836715,0.051968693,Subject C,Focused
-0.009945214,0.579199499,0.214264746,-0.125571181,0.180259883,Subject C,Focused
-0.009935518,0.507684215,0.197057319,-0.101809615,0.204045764,Subject C,Focused
-0.009926784,0.048971789,0.144878439,-0.112453781,-0.134164215,Subject C,Focused
-0.009918992,-0.332823003,0.083292821,-0.135083259,-0.658780215,Subject C,Focused
-0.009912123,-0.183689034,0.060726608,-0.133766405,-0.960700787,Subject C,Focused
-0.009906153,0.314713501,0.091920537,-0.092993953,-0.914337348,Subject C,Focused
-0.009901059,0.501208583,0.137398285,-0.031105677,-0.836924076,Subject C,Focused
-0.009896813,0.022287785,0.144751421,0.021609718,-1.077334776,Subject C,Focused
-0.009893386,-0.725557459,0.102103316,0.053364992,-1.559987199,Subject C,Focused
-0.009890748,-1.063340772,0.042524288,0.074981873,-1.861218196,Subject C,Focused
-0.009888865,-0.822761146,0.002753599,0.098493689,-1.713578508,Subject C,Focused
-0.009887704,-0.477234964,-0.007584608,0.120895227,-1.310329019,Subject C,Focused
-0.009887226,-0.489072977,0.004110043,0.130392745,-1.056261563,Subject C,Focused
-0.009887394,-0.744208131,0.034558325,0.121756044,-1.096464728,Subject C,Focused
-0.009888168,-0.781691526,0.080192355,0.101647378,-1.202566263,Subject C,Focused
-0.009889507,-0.464879391,0.120763553,0.082092872,-1.127197698,Subject C,Focused
-0.009891369,-0.186476433,0.12872529,0.071416634,-0.939195324,Subject C,Focused
-0.009893711,-0.340641808,0.100411231,0.069584087,-0.886480701,Subject C,Focused
-0.009896489,-0.77001297,0.064652453,0.070272442,-0.985255613,Subject C,Focused
-0.009899659,-0.934402082,0.0523305,0.067661059,-0.935810139,Subject C,Focused
-0.009903177,-0.599225842,0.064164245,0.061326035,-0.524026026,Subject C,Focused
-0.009906998,-0.145490989,0.073681218,0.054905795,0.031648356,Subject C,Focused
-0.009911079,-0.086039101,0.056861718,0.052348989,0.289841716,Subject C,Focused
-0.009915375,-0.410624503,0.016367345,0.056389307,0.109418722,Subject C,Focused
-0.009919842,-0.608828728,-0.018531376,0.067189901,-0.18601331,Subject C,Focused
-0.009924437,-0.336461056,-0.015653888,0.079758766,-0.210890712,Subject C,Focused
-0.009929114,0.144327116,0.029949363,0.08566105,0.030181756,Subject C,Focused
-0.009933829,0.319968072,0.087607446,0.080330112,0.200813452,Subject C,Focused
-0.009938538,0.1011772,0.117444965,0.06599876,0.094894229,Subject C,Focused
-0.009943197,-0.076029101,0.107786133,0.045320878,-0.098271357,Subject C,Focused
-0.009947761,0.141652683,0.08458291,0.01713254,-0.040392087,Subject C,Focused
-0.009952186,0.52396187,0.082101895,-0.017004831,0.330186049,Subject C,Focused
-0.00995643,0.553569635,0.104911913,-0.046576336,0.713935182,Subject C,Focused
-0.009960452,0.146275645,0.121570701,-0.058844322,0.786473297,Subject C,Focused
-0.009964212,-0.177443058,0.098262699,-0.051106792,0.548386146,Subject C,Focused
-0.009967669,0.056742968,0.036277254,-0.033354609,0.297791301,Subject C,Focused
-0.009970784,0.639068793,-0.029297683,-0.020222577,0.285141345,Subject C,Focused
-0.009973518,0.913887258,-0.067093549,-0.021241258,0.462996722,Subject C,Focused
-0.009975834,0.612001359,-0.076538596,-0.034384114,0.607915274,Subject C,Focused
-0.009977693,0.188269477,-0.073728859,-0.044662573,0.634649214,Subject C,Focused
-0.009979059,0.218022511,-0.061027045,-0.031477819,0.692945164,Subject C,Focused
-0.009979895,0.655402761,-0.024167061,0.0154456,0.928013581,Subject C,Focused
-0.009980164,0.930093877,0.041774267,0.082618498,1.238986021,Subject C,Focused
-0.009979832,0.730155867,0.117422705,0.137009573,1.37886485,Subject C,Focused
-0.009978863,0.415179789,0.177795866,0.14992846,1.266504675,Subject C,Focused
-0.009977223,0.520028326,0.219941771,0.121074849,1.079325593,Subject C,Focused
-0.009974878,1.026525858,0.264122927,0.078103611,1.007390638,Subject C,Focused
-0.009971796,1.374005043,0.327741955,0.050286548,1.026449967,Subject C,Focused
-0.009967944,1.184701954,0.401198973,0.043304165,0.996344862,Subject C,Focused
-0.009963289,0.739025746,0.449345501,0.041049576,0.908931265,Subject C,Focused
-0.009957802,0.587233125,0.437958881,0.029322113,0.908448443,Subject C,Focused
-0.009951452,0.831138797,0.365473744,0.012510801,1.053842125,Subject C,Focused
-0.009944212,1.022573117,0.273197848,0.005530985,1.173632976,Subject C,Focused
-0.009936054,0.78741352,0.2188633,0.014194848,1.046028221,Subject C,Focused
-0.009926956,0.332459722,0.23049489,0.029445044,0.684416646,Subject C,Focused
-0.009916895,0.169204368,0.282503896,0.040182571,0.344577031,Subject C,Focused
-0.009905849,0.4277314,0.318144293,0.044844841,0.230287969,Subject C,Focused
-0.009893802,0.668593028,0.295218528,0.047561049,0.272912676,Subject C,Focused
-0.009880736,0.44826314,0.210968014,0.049510582,0.255660827,Subject C,Focused
-0.009866636,-0.095434668,0.091227711,0.05004444,0.097951133,Subject C,Focused
-0.009851492,-0.414523098,-0.032418743,0.051679161,-0.072791946,Subject C,Focused
-0.009835293,-0.274616586,-0.132947378,0.056442429,-0.129956958,Subject C,Focused
-0.009818031,-0.080647915,-0.189492758,0.059648005,-0.137529191,Subject C,Focused
-0.009799702,-0.343910804,-0.195448706,0.05485572,-0.262866907,Subject C,Focused
-0.009780301,-0.964606291,-0.168649497,0.044168247,-0.528223833,Subject C,Focused
-0.009759826,-1.293143646,-0.144619822,0.036393856,-0.736477845,Subject C,Focused
-0.009738274,-0.937054003,-0.151271614,0.034382992,-0.690541479,Subject C,Focused
-0.009715645,-0.276044444,-0.188274677,0.030229414,-0.440959402,Subject C,Focused
-0.009691938,0.004667292,-0.230690406,0.014270404,-0.237783759,Subject C,Focused
-0.009667156,-0.23084956,-0.25078629,-0.016115685,-0.229847288,Subject C,Focused
-0.0096413,-0.436083727,-0.237640389,-0.057678804,-0.28920112,Subject C,Focused
-0.009614372,-0.128705028,-0.201922953,-0.104817579,-0.191799408,Subject C,Focused
-0.009586374,0.475741717,-0.166248979,-0.146674923,0.076866434,Subject C,Focused
-0.009557309,0.762496245,-0.147844096,-0.164494719,0.296731729,Subject C,Focused
-0.00952718,0.528587338,-0.143216994,-0.14199032,0.310377392,Subject C,Focused
-0.009495989,0.232723353,-0.125911883,-0.085127903,0.24945768,Subject C,Focused
-0.009463741,0.377689128,-0.063563898,-0.028465236,0.37528728,Subject C,Focused
-0.009430438,0.858081135,0.052092575,-0.01147634,0.724147662,Subject C,Focused
-0.009396085,1.118179562,0.183213465,-0.040674184,1.021064987,Subject C,Focused
-0.009360685,0.87603742,0.257078239,-0.077189154,0.992088939,Subject C,Focused
-0.009324245,0.446237982,0.215642976,-0.070110083,0.685042545,Subject C,Focused
-0.009286768,0.266927561,0.069064719,-0.005859183,0.392301959,Subject C,Focused
-0.009248261,0.302769156,-0.10025066,0.078679316,0.290433336,Subject C,Focused
-0.009208729,0.132863498,-0.198219064,0.133011113,0.271263318,Subject C,Focused
-0.009168182,-0.412578543,-0.19180863,0.13770631,0.156553682,Subject C,Focused
-0.009126627,-0.949164049,-0.124824169,0.110585117,-0.031441992,Subject C,Focused
-0.00908407,-1.000384409,-0.068976123,0.077236274,-0.117961049,Subject C,Focused
-0.009040519,-0.619703751,-0.066585416,0.045625584,-0.053249013,Subject C,Focused
-0.008995983,-0.340172247,-0.113543234,0.00861705,-0.008808715,Subject C,Focused
-0.008950479,-0.503615881,-0.178795781,-0.038218,-0.138862745,Subject C,Focused
-0.008904018,-0.836886349,-0.230174017,-0.085467696,-0.334252751,Subject C,Focused
-0.008856603,-0.82211463,-0.248309987,-0.112221089,-0.33450052,Subject C,Focused
-0.008808231,-0.383177126,-0.229270609,-0.098894578,-0.081200874,Subject C,Focused
-0.008758913,-0.001954329,-0.183716567,-0.045254424,0.164470285,Subject C,Focused
-0.008708684,-0.104577995,-0.13385186,0.020437811,0.133628853,Subject C,Focused
-0.00865757,-0.501189524,-0.101094188,0.057107427,-0.09875365,Subject C,Focused
-0.008605553,-0.611144224,-0.088308021,0.043146039,-0.195007447,Subject C,Focused
-0.008552578,-0.197516546,-0.078942999,-0.00694762,0.024175572,Subject C,Focused
-0.008498644,0.334780612,-0.060531346,-0.057829148,0.365862692,Subject C,Focused
-0.008443861,0.46131311,-0.042045687,-0.080549301,0.524092135,Subject C,Focused
-0.008388355,0.195097436,-0.038694269,-0.067385636,0.450005187,Subject C,Focused
-0.008332055,0.026710949,-0.048219393,-0.033279743,0.351354211,Subject C,Focused
-0.008274684,0.2489239,-0.057608599,-0.009472466,0.367512788,Subject C,Focused
-0.008216124,0.570207747,-0.067724719,-0.024873382,0.39616325,Subject C,Focused
-0.008156784,0.522815332,-0.09027742,-0.080022133,0.298132703,Subject C,Focused
-0.008097292,0.113703733,-0.117366295,-0.139868708,0.154110032,Subject C,Focused
-0.008037514,-0.155417061,-0.115955067,-0.161630734,0.181849655,Subject C,Focused
-0.007976212,0.060848868,-0.067878803,-0.133807798,0.424477003,Subject C,Focused
-0.007912473,0.486783643,-0.003895324,-0.08529112,0.655937997,Subject C,Focused
-0.007847713,0.57510826,0.020626356,-0.055593277,0.647471241,Subject C,Focused
-0.00778497,0.217419268,-0.014738224,-0.059334357,0.447567766,Subject C,Focused
-0.007724576,-0.136072269,-0.070911908,-0.080378635,0.318293387,Subject C,Focused
-0.007661329,-0.107798807,-0.089265466,-0.094881971,0.415078272,Subject C,Focused
-0.007589693,0.09553796,-0.05264171,-0.092850142,0.604392073,Subject C,Focused
-0.007513969,-0.000658862,-0.002654095,-0.077340663,0.629556968,Subject C,Focused
-0.007448672,-0.438495893,0.003844084,-0.052666664,0.413008332,Subject C,Focused
-0.007400196,-0.725045542,-0.047802697,-0.023651964,0.131795545,Subject C,Focused
-0.007346818,-0.48595883,-0.119639687,-0.00443501,-0.010272214,Subject C,Focused
-0.007248161,0.002641638,-0.16647261,-0.015721363,-0.021055069,Subject C,Focused
-0.007086157,0.126404389,-0.183460569,-0.065711494,-0.071034543,Subject C,Focused
-0.006893612,-0.298798294,-0.202151232,-0.137079893,-0.225542061,Subject C,Focused
-0.006730438,-0.786485426,-0.244148155,-0.197867846,-0.32037501,Subject C,Focused
-0.006629438,-0.780371888,-0.291147383,-0.225171372,-0.177353059,Subject C,Focused
-0.006572543,-0.339640898,-0.30658379,-0.218500281,0.099640526,Subject C,Focused
-0.006519371,-0.04210964,-0.278821446,-0.194922351,0.166577204,Subject C,Focused
-0.006448194,-0.234521953,-0.230539104,-0.174292474,-0.16713611,Subject C,Focused
-0.0063654,-0.597926639,-0.185641549,-0.165634735,-0.661233703,Subject C,Focused
-0.006285498,-0.592544784,-0.142466037,-0.163639771,-0.857301159,Subject C,Focused
-0.00621278,-0.198543542,-0.090322344,-0.158889373,-0.566596613,Subject C,Focused
-0.006141703,0.03826634,-0.041118143,-0.151808164,-0.070688988,Subject C,Focused
-0.006067057,-0.254478022,-0.025559157,-0.152375491,0.201132016,Subject C,Focused
-0.005989164,-0.724697008,-0.056543881,-0.163731567,0.149799777,Subject C,Focused
-0.005911053,-0.701378745,-0.109936912,-0.17182202,0.092447652,Subject C,Focused
-0.005834129,-0.065979677,-0.148978843,-0.15851587,0.355325972,Subject C,Focused
-0.005757471,0.551982717,-0.162780429,-0.123296219,0.848996675,Subject C,Focused
-0.005679829,0.53627426,-0.173779372,-0.084080677,1.143522425,Subject C,Focused
-0.005601062,0.028508069,-0.2062655,-0.055075681,0.971667383,Subject C,Focused
-0.005521788,-0.30134833,-0.253523976,-0.032077125,0.541768785,Subject C,Focused
-0.005442411,-0.142302318,-0.283629359,-0.006192584,0.262213336,Subject C,Focused
-0.005362806,0.084444152,-0.277522828,0.013373256,0.247488492,Subject C,Focused
-0.005282694,-0.151306533,-0.253037097,0.002002785,0.264962513,Subject C,Focused
-0.005202002,-0.715763523,-0.246084421,-0.050653286,0.150862188,Subject C,Focused
-0.005120854,-0.9393543,-0.270629944,-0.119948438,0.057352648,Subject C,Focused
-0.005039362,-0.494564875,-0.300678961,-0.162038868,0.169797051,Subject C,Focused
-0.004957527,0.137964587,-0.294052561,-0.151496291,0.341537937,Subject C,Focused
-0.004875296,0.246368725,-0.237419231,-0.103036337,0.226149476,Subject C,Focused
-0.004792654,-0.229814506,-0.166382206,-0.058049988,-0.242649219,Subject C,Focused
