timestamps,TP9,AF7,AF8,TP10,Subject,Emotion
-0.182441441,-0.109609561,0.061690295,-0.054872757,0.420904868,Subject C,Focused
-0.183505903,-0.018401089,0.092332839,-0.067018015,0.467780956,Subject C,Focused
-0.184546956,-0.189234817,0.109529613,-0.080956619,0.259898024,Subject C,Focused
-0.185578849,-0.401249653,0.102433374,-0.078904633,-0.09424629,Subject C,Focused
-0.186607713,-0.356858611,0.079806545,-0.057193578,-0.259139868,Subject C,Focused
-0.18761156,-0.075029294,0.07145838,-0.032632869,-0.088036271,Subject C,Focused
-0.18854975,0.118309177,0.09964838,-0.026051964,0.164043093,Subject C,Focused
-0.189403955,-0.000209025,0.150883701,-0.040975071,0.138716192,Subject C,Focused
-0.190206719,-0.258827621,0.186527057,-0.060558448,-0.170531017,Subject C,Focused
-0.191017697,-0.286894339,0.185073027,-0.066962771,-0.386580832,Subject C,Focused
-0.191869435,0.041190752,0.165910361,-0.062909572,-0.199832783,Subject C,Focused
-0.192743608,0.45767943,0.163987398,-0.069731569,0.247697902,Subject C,Focused
-0.193599584,0.615971371,0.185492369,-0.100359479,0.518657427,Subject C,Focused
-0.194415382,0.470501968,0.199029184,-0.137824995,0.382841564,Subject C,Focused
-0.195197142,0.274546228,0.174099379,-0.148814089,0.053010156,Subject C,Focused
-0.195959125,0.243322013,0.121587648,-0.120169585,-0.110108337,Subject C,Focused
-0.196705381,0.324962555,0.086971913,-0.07460722,-0.027803746,Subject C,Focused
-0.197430124,0.336623309,0.101072208,-0.045838318,0.061490294,Subject C,Focused
-0.198127908,0.233058515,0.143845003,-0.043445478,-0.041169972,Subject C,Focused
-0.198798819,0.132108788,0.164384551,-0.04816861,-0.237723874,Subject C,Focused
-0.199445654,0.096821926,0.136748119,-0.039478272,-0.293500083,Subject C,Focused
-0.200069591,0.027776118,0.088811129,-0.021587511,-0.168771174,Subject C,Focused
-0.200669481,-0.158258477,0.069846564,-0.018723388,-0.068493176,Subject C,Focused
-0.201243851,-0.338374352,0.092288172,-0.044476562,-0.154026751,Subject C,Focused
-0.201792341,-0.306920066,0.115421786,-0.079852472,-0.31379219,Subject C,Focused
-0.202315349,-0.082064747,0.091769621,-0.089130455,-0.304050404,Subject C,Focused
-0.202813064,0.045557283,0.021932234,-0.059347766,-0.071734497,Subject C,Focused
-0.203285147,-0.148289648,-0.046808552,-0.015849112,0.171791479,Subject C,Focused
-0.203731108,-0.507178721,-0.073042208,0.006983047,0.219213652,Subject C,Focused
-0.204150663,-0.638252713,-0.058925099,0.002467914,0.114440175,Subject C,Focused
-0.204543726,-0.374825638,-0.032806849,-0.00965247,0.059572728,Subject C,Focused
-0.204910202,0.013552081,-0.010302042,-0.013407487,0.130132902,Subject C,Focused
-0.205249882,0.138873613,0.012208033,-0.010889562,0.188569814,Subject C,Focused
-0.205562509,-0.046809385,0.032993216,-0.008218198,0.094890767,Subject C,Focused
-0.205847861,-0.221062055,0.036718889,-0.003518955,-0.089065591,Subject C,Focused
-0.206105764,-0.118399676,0.01977706,0.004748606,-0.181164054,Subject C,Focused
-0.206336054,0.13218944,0.00831122,0.008540198,-0.131082348,Subject C,Focused
-0.206538546,0.182504271,0.031812129,-0.000878165,-0.097664185,Subject C,Focused
-0.206713042,-0.085460208,0.080155694,-0.019040034,-0.237494635,Subject C,Focused
-0.206859354,-0.414494626,0.1057896,-0.031145089,-0.474523817,Subject C,Focused
-0.206977306,-0.501857491,0.07940211,-0.027969723,-0.560734598,Subject C,Focused
-0.20706673,-0.366855719,0.031028131,-0.014748573,-0.377745096,Subject C,Focused
-0.207127454,-0.294424769,0.01722651,-0.005811204,-0.11265482,Subject C,Focused
-0.207159308,-0.454688497,0.050044882,-0.012911593,-0.068991164,Subject C,Focused
-0.207162124,-0.702438802,0.080073677,-0.0353545,-0.311902652,Subject C,Focused
-0.20713574,-0.794392337,0.059078574,-0.058617558,-0.570498636,Subject C,Focused
-0.207079998,-0.705453869,0.002081258,-0.066988066,-0.537105126,Subject C,Focused
-0.206994743,-0.622086465,-0.031572434,-0.061258487,-0.225410226,Subject C,Focused
-0.206879823,-0.649472776,-0.012209927,-0.059163849,0.046953515,Subject C,Focused
-0.206735087,-0.650830544,0.027283264,-0.073412928,0.045431977,Subject C,Focused
-0.20656039,-0.442843016,0.038915444,-0.094152843,-0.100252704,Subject C,Focused
-0.206355588,-0.082344271,0.02142719,-0.100378285,-0.084326595,Subject C,Focused
-0.20612054,0.152369911,0.01617268,-0.085677047,0.157396709,Subject C,Focused
-0.205855107,0.086321849,0.048133553,-0.064016613,0.356640941,Subject C,Focused
-0.205559154,-0.131349835,0.094340923,-0.050440496,0.272497691,Subject C,Focused
-0.205232548,-0.206417019,0.118770623,-0.045758081,0.009458404,Subject C,Focused
-0.204875158,-0.060678967,0.121078325,-0.044184586,-0.136669644,Subject C,Focused
-0.204486857,0.09218961,0.133440382,-0.047041635,-0.075843517,Subject C,Focused
-0.204067519,0.05262842,0.174251343,-0.059021597,-0.015063278,Subject C,Focused
-0.203617023,-0.098491342,0.22216908,-0.073934705,-0.148386406,Subject C,Focused
-0.20313525,-0.139814894,0.242637042,-0.075546119,-0.397442523,Subject C,Focused
-0.202622081,-0.047049655,0.230968504,-0.056879971,-0.537923235,Subject C,Focused
-0.202077403,-0.03515521,0.216841904,-0.032379951,-0.499151204,Subject C,Focused
-0.201501104,-0.234780211,0.224115034,-0.024757259,-0.426444967,Subject C,Focused
-0.200893072,-0.460980166,0.235791904,-0.040976901,-0.457695441,Subject C,Focused
-0.200253201,-0.41754592,0.208927891,-0.065288522,-0.54226203,Subject C,Focused
-0.199581387,-0.087493963,0.125378265,-0.076259988,-0.53809757,Subject C,Focused
-0.198877528,0.202658294,0.021650109,-0.067395463,-0.430927425,Subject C,Focused
-0.198141524,0.150946414,-0.038985738,-0.049128177,-0.361378059,Subject C,Focused
-0.197373276,-0.160255116,-0.02828904,-0.033106183,-0.419878377,Subject C,Focused
-0.196572685,-0.357054436,0.016005218,-0.019239401,-0.496784576,Subject C,Focused
-0.195739657,-0.220205621,0.028060163,-0.00070728,-0.411451542,Subject C,Focused
-0.194874096,0.049077551,-0.018445106,0.020221695,-0.167801992,Subject C,Focused
-0.193975911,0.071891903,-0.09038862,0.027409052,0.007020865,Subject C,Focused
-0.193045008,-0.243361844,-0.142067752,0.008558093,-0.077327746,Subject C,Focused
-0.192081298,-0.581279513,-0.163668758,-0.022195686,-0.32915341,Subject C,Focused
-0.191084689,-0.593825022,-0.171615915,-0.029456652,-0.466114923,Subject C,Focused
-0.190055095,-0.303283423,-0.167363178,0.006147037,-0.344045094,Subject C,Focused
-0.188992427,-0.041984885,-0.132984502,0.061078728,-0.112140989,Subject C,Focused
-0.1878966,-0.035137006,-0.071082237,0.092132781,-0.006505849,Subject C,Focused
-0.186767527,-0.168494129,-0.02549857,0.085197411,-0.063858559,Subject C,Focused
-0.185605123,-0.201028248,-0.042432692,0.066219636,-0.123432306,Subject C,Focused
-0.1844093,-0.096894082,-0.115042831,0.061608492,-0.082198272,Subject C,Focused
-0.183179974,-0.036788143,-0.181658204,0.065116128,-0.035329111,Subject C,Focused
-0.181917057,-0.128229339,-0.183980766,0.054565906,-0.114028929,Subject C,Focused
-0.180620465,-0.231218256,-0.121786234,0.028622413,-0.26152605,Subject C,Focused
-0.179290113,-0.144543936,-0.047889033,0.009923693,-0.277123999,Subject C,Focused
-0.177925916,0.097799752,-0.014934515,0.01369488,-0.089331592,Subject C,Focused
-0.17652779,0.235073398,-0.032177246,0.028106149,0.111898015,Subject C,Focused
-0.175095653,0.109469564,-0.069284863,0.031670623,0.091417805,Subject C,Focused
-0.173629423,-0.112962365,-0.089848562,0.021574953,-0.124019476,Subject C,Focused
-0.172129018,-0.139736117,-0.07579893,0.015868247,-0.25668708,Subject C,Focused
-0.170594359,0.077442871,-0.030550043,0.029327895,-0.11744335,Subject C,Focused
-0.169025366,0.287011171,0.025218606,0.054598103,0.157483141,Subject C,Focused
-0.167421961,0.271511552,0.06056388,0.070022687,0.282453559,Subject C,Focused
-0.165784067,0.126733656,0.053837393,0.062783605,0.175193448,Subject C,Focused
-0.164111607,0.117071902,0.017633022,0.041271788,0.021768327,Subject C,Focused
-0.162404506,0.305834065,-0.001114116,0.025967326,-0.004458945,Subject C,Focused
-0.16066269,0.459989602,0.040429464,0.031193698,0.038382491,Subject C,Focused
-0.158886085,0.362878124,0.135561145,0.056298809,-0.007695723,Subject C,Focused
-0.157074621,0.119573905,0.224139043,0.091550623,-0.132109065,Subject C,Focused
-0.155228231,0.03776585,0.241136732,0.128010863,-0.13457164,Subject C,Focused
-0.15334685,0.225693011,0.17471524,0.159361696,0.11712116,Subject C,Focused
-0.151430414,0.434476587,0.0780219,0.177633014,0.484100997,Subject C,Focused
-0.149478864,0.364772789,0.021528396,0.174927555,0.669375542,Subject C,Focused
-0.147492141,0.048104129,0.030854142,0.153511711,0.527538284,Subject C,Focused
-0.145470192,-0.194696807,0.071730322,0.129941194,0.221033254,Subject C,Focused
-0.143412966,-0.165665835,0.096341904,0.122313394,0.043051155,Subject C,Focused
-0.141320415,-0.03133438,0.097721918,0.13211942,0.103136842,Subject C,Focused
-0.139192498,-0.078336472,0.109398292,0.142558702,0.23002109,Subject C,Focused
-0.137029176,-0.312885575,0.154189146,0.137580218,0.199203022,Subject C,Focused
-0.134830412,-0.439116075,0.208563319,0.120829782,0.013179962,Subject C,Focused
-0.132596179,-0.246221327,0.227171651,0.111468022,-0.103967796,Subject C,Focused
-0.13032645,0.108081215,0.19587339,0.120046228,0.010863604,Subject C,Focused
-0.128021206,0.295028951,0.148839124,0.133609092,0.256136556,Subject C,Focused
-0.125680433,0.23273194,0.131006891,0.12994369,0.394762798,Subject C,Focused
-0.123304125,0.165039596,0.149296662,0.103292216,0.337703554,Subject C,Focused
-0.120892277,0.297047118,0.16500386,0.068246965,0.215712057,Subject C,Focused
-0.118444893,0.495807795,0.134183939,0.039091102,0.173741042,Subject C,Focused
-0.115961985,0.483195458,0.053685787,0.014790313,0.186551194,Subject C,Focused
-0.113443568,0.254147463,-0.035243367,-0.012290186,0.133507584,Subject C,Focused
-0.110889665,0.115267461,-0.090565365,-0.041274652,-0.000636556,Subject C,Focused
-0.108300306,0.261343501,-0.11371597,-0.063832779,-0.094998584,Subject C,Focused
-0.105675526,0.473981708,-0.144748863,-0.076619836,-0.073601936,Subject C,Focused
-0.103015368,0.385516416,-0.213768815,-0.084540413,-0.030349727,Subject C,Focused
-0.100319884,-0.022985953,-0.305746455,-0.090254483,-0.100149645,Subject C,Focused
-0.097589129,-0.355981454,-0.377829201,-0.086517692,-0.242611451,Subject C,Focused
-0.094823169,-0.266595667,-0.402713054,-0.064715069,-0.254467135,Subject C,Focused
-0.092022077,0.144842143,-0.386111167,-0.030449456,-0.028828288,Subject C,Focused
-0.089185934,0.479852245,-0.349928196,-0.004847594,0.272121606,Subject C,Focused
-0.086314826,0.508899187,-0.314984409,-0.005786221,0.378213199,Subject C,Focused
-0.083408852,0.373004751,-0.300059863,-0.029520972,0.225251471,Subject C,Focused
-0.080468115,0.329346696,-0.318994313,-0.0558693,0.028010303,Subject C,Focused
-0.077492729,0.410782515,-0.366538727,-0.071590935,0.006810679,Subject C,Focused
-0.074482814,0.419203701,-0.414445593,-0.082476487,0.104700039,Subject C,Focused
-0.071438502,0.225188482,-0.432498613,-0.099015114,0.068112649,Subject C,Focused
-0.06835993,-0.030017754,-0.413898488,-0.116278987,-0.190951753,Subject C,Focused
-0.065247245,-0.097111799,-0.377765991,-0.117676382,-0.425839901,Subject C,Focused
-0.062100602,0.06263459,-0.350702823,-0.100213651,-0.34028746,Subject C,Focused
-0.058920165,0.22304284,-0.348469881,-0.086224618,0.013018921,Subject C,Focused
-0.055706108,0.183024087,-0.369101474,-0.099216814,0.255965216,Subject C,Focused
-0.052458611,0.022915252,-0.395905941,-0.130265662,0.137083294,Subject C,Focused
-0.049177863,-0.01331723,-0.407264267,-0.142111024,-0.15997504,Subject C,Focused
-0.045864065,0.144638855,-0.38859823,-0.112445662,-0.254116104,Subject C,Focused
-0.042517423,0.285695987,-0.33946362,-0.061468122,-0.039425787,Subject C,Focused
-0.039138155,0.185830712,-0.274238446,-0.0264983,0.214664907,Subject C,Focused
-0.035726486,-0.097483128,-0.219210256,-0.019670955,0.23133776,Subject C,Focused
-0.03228265,-0.289190825,-0.202592534,-0.025099729,0.053642777,Subject C,Focused
-0.028806888,-0.236351861,-0.234312543,-0.029575686,-0.071850609,Subject C,Focused
-0.025299454,-0.087002525,-0.29085722,-0.0357867,-0.043535501,Subject C,Focused
-0.021760609,-0.084408589,-0.328537969,-0.045316075,-0.004999593,Subject C,Focused
-0.018190625,-0.251317183,-0.320245487,-0.048374675,-0.10093447,Subject C,Focused
-0.014589781,-0.375287264,-0.277235159,-0.038440027,-0.252976614,Subject C,Focused
-0.010958363,-0.301860896,-0.230355534,-0.024957481,-0.256560531,Subject C,Focused
-0.007296669,-0.133992462,-0.195159372,-0.023038495,-0.05668095,Subject C,Focused
-0.003605002,-0.073867564,-0.165240784,-0.036698462,0.164974138,Subject C,Focused
0.000116324,-0.134572323,-0.13712726,-0.056888549,0.206202026,Subject C,Focused
0.003866991,-0.118537342,-0.125156769,-0.070646782,0.088987002,Subject C,Focused
0.007646667,0.108726884,-0.142531433,-0.069034904,0.018411978,Subject C,Focused
0.011455018,0.410245054,-0.178793489,-0.051467217,0.103513777,Subject C,Focused
0.015291699,0.504053468,-0.210618842,-0.02625726,0.202992374,Subject C,Focused
0.019156357,0.279202522,-0.230717488,-0.004426072,0.114211873,Subject C,Focused
0.023048631,-0.061859408,-0.250177252,0.009036906,-0.122873982,Subject C,Focused
0.026968152,-0.197800269,-0.271113584,0.016241321,-0.215357853,Subject C,Focused
0.030914545,-0.017936416,-0.276061989,0.019175312,0.038699877,Subject C,Focused
0.034887424,0.259830587,-0.257017544,0.015191144,0.454289184,Subject C,Focused
0.0388864,0.311926558,-0.240351676,0.001060348,0.601702938,Subject C,Focused
0.042911073,0.042341156,-0.259374889,-0.021424174,0.267044654,Subject C,Focused
0.046961037,-0.328415706,-0.302283879,-0.045445384,-0.294944898,Subject C,Focused
0.051035878,-0.509507793,-0.310325316,-0.061891805,-0.626430471,Subject C,Focused
0.055135176,-0.436359237,-0.241843396,-0.060934742,-0.549531479,Subject C,Focused
0.059258503,-0.282526469,-0.127335934,-0.036965519,-0.304512465,Subject C,Focused
0.063405424,-0.204549439,-0.042936547,0.001019021,-0.211724121,Subject C,Focused
0.067575498,-0.16311219,-0.027247142,0.027063131,-0.306657743,Subject C,Focused
0.071768274,-0.03883616,-0.038852905,0.017830218,-0.383151949,Subject C,Focused
0.075983296,0.150150098,-0.008835422,-0.019694175,-0.317684007,Subject C,Focused
0.080220097,0.25177653,0.069669673,-0.046683542,-0.208563039,Subject C,Focused
0.084478207,0.192007272,0.12349866,-0.027927148,-0.180253688,Subject C,Focused
0.088757144,0.0718127,0.082795369,0.029792091,-0.185212378,Subject C,Focused
0.093056423,0.009535162,-0.02867945,0.079794057,-0.092130013,Subject C,Focused
0.097375547,-0.011528478,-0.107690487,0.080458669,0.106642068,Subject C,Focused
0.101714012,-0.050072394,-0.080069257,0.038673687,0.290002467,Subject C,Focused
0.106071309,-0.045392061,0.021919172,0.005679453,0.382777324,Subject C,Focused
0.110446916,0.106052383,0.10278779,0.026857786,0.427858518,Subject C,Focused
0.114840307,0.328438551,0.111838327,0.096227191,0.474942662,Subject C,Focused
0.119250945,0.379810279,0.087498969,0.162965265,0.488359453,Subject C,Focused
0.123678285,0.159400015,0.096560527,0.18191793,0.412076459,Subject C,Focused
0.128121775,-0.105256758,0.15463817,0.153786282,0.280244552,Subject C,Focused
0.132580855,-0.09842795,0.220566021,0.11534278,0.205785165,Subject C,Focused
0.137054956,0.186360501,0.252241021,0.096815692,0.248675104,Subject C,Focused
0.1415435,0.406784514,0.244449116,0.096371187,0.319322807,Subject C,Focused
0.1460459,0.266122636,0.214366362,0.09516902,0.248537476,Subject C,Focused
0.15056156,-0.135403255,0.173424548,0.086506891,-0.021845382,Subject C,Focused
0.155089874,-0.423082477,0.125457024,0.080674038,-0.338104529,Subject C,Focused
0.159630228,-0.391416113,0.080403644,0.083839018,-0.475981224,Subject C,Focused
0.164181997,-0.225613361,0.053438677,0.083204301,-0.393741776,Subject C,Focused
0.16874455,-0.240720122,0.047725058,0.059284085,-0.287565273,Subject C,Focused
0.173317248,-0.481467777,0.043324779,0.010194466,-0.350803795,Subject C,Focused
0.17789944,-0.689133677,0.008216768,-0.040445097,-0.521183157,Subject C,Focused
0.182490471,-0.655795727,-0.072678835,-0.06150163,-0.54661536,Subject C,Focused
0.187089678,-0.486274899,-0.173959426,-0.042631117,-0.308463759,Subject C,Focused
0.191696387,-0.431167014,-0.242112781,-0.006462156,0.001676195,Subject C,Focused
0.19630992,-0.535349377,-0.244962527,0.010906087,0.093125705,Subject C,Focused
0.200929591,-0.580598948,-0.20822991,-0.004233418,-0.071523261,Subject C,Focused
0.205554707,-0.393609532,-0.188165437,-0.029691048,-0.228699778,Subject C,Focused
0.210184567,-0.103760058,-0.20516665,-0.034839635,-0.146493752,Subject C,Focused
0.214818463,-0.003574409,-0.222660705,-0.017910671,0.078962842,Subject C,Focused
0.219455683,-0.182311408,-0.201784217,-0.006061268,0.148963407,Subject C,Focused
0.224095506,-0.40059793,-0.157799295,-0.017030256,-0.048004828,Subject C,Focused
0.228737204,-0.37530832,-0.139607831,-0.032877112,-0.290245991,Subject C,Focused
0.233380041,-0.124864156,-0.161662923,-0.022941407,-0.312536041,Subject C,Focused
0.238023276,0.057231405,-0.183067892,0.012292766,-0.149791414,Subject C,Focused
0.242666161,-0.032080936,-0.15923971,0.035772324,-0.079743257,Subject C,Focused
0.247307942,-0.259123377,-0.092914841,0.017448877,-0.24030372,Subject C,Focused
0.251947858,-0.331003766,-0.022380242,-0.028289769,-0.435759597,Subject C,Focused
0.256585142,-0.165988938,0.024380869,-0.059501861,-0.400704458,Subject C,Focused
0.261219018,0.01318982,0.046259659,-0.055381147,-0.171928315,Subject C,Focused
0.265848708,-0.023906175,0.049346276,-0.035717129,-0.057160674,Subject C,Focused
0.270473426,-0.216757078,0.03379036,-0.031713885,-0.225379722,Subject C,Focused
0.275092381,-0.305160931,0.00526442,-0.049406185,-0.467970642,Subject C,Focused
0.279704777,-0.188553498,-0.017137029,-0.068813853,-0.467152286,Subject C,Focused
0.284309809,-0.065507033,-0.018312473,-0.072419422,-0.219954713,Subject C,Focused
0.28890667,-0.154746438,-0.008313472,-0.064095759,-0.041870023,Subject C,Focused
0.293494544,-0.37526291,-0.01377267,-0.058899304,-0.14189355,Subject C,Focused
0.298072611,-0.432739916,-0.043630502,-0.061720875,-0.34460724,Subject C,Focused
0.302640047,-0.207226128,-0.069681294,-0.061984404,-0.328300517,Subject C,Focused
0.30719602,0.080537116,-0.05007235,-0.048782906,-0.048628042,Subject C,Focused
0.311739696,0.1496739,0.024317962,-0.026764533,0.212654918,Subject C,Focused
0.316270232,0.008204962,0.11016558,-0.012721225,0.215293688,Subject C,Focused
0.320786786,-0.092017537,0.145974644,-0.015622946,0.050044763,Subject C,Focused
0.325288512,-0.012914987,0.113393507,-0.024349403,-0.005142536,Subject C,Focused
0.32977456,0.101989434,0.063354894,-0.020178818,0.15513941,Subject C,Focused
0.334244074,0.072239708,0.06992605,-0.000390628,0.349497626,Subject C,Focused
0.338696192,-0.024969091,0.150155996,0.016077948,0.354750104,Subject C,Focused
0.343130051,0.056135265,0.238348587,0.008974397,0.178172528,Subject C,Focused
0.347544796,0.366166135,0.254220447,-0.019770014,0.028424353,Subject C,Focused
0.351939576,0.629819999,0.193175177,-0.045952484,0.052461697,Subject C,Focused
0.356313523,0.55746332,0.130378072,-0.047417415,0.178391029,Subject C,Focused
0.360665741,0.215186649,0.131397426,-0.027676671,0.23739712,Subject C,Focused
0.364995341,-0.029253689,0.179102327,-0.013437904,0.175879675,Subject C,Focused
0.369301477,0.060987241,0.203200218,-0.027077882,0.082264126,Subject C,Focused
0.373583339,0.308538925,0.167147731,-0.062342321,0.028574895,Subject C,Focused
0.377840062,0.339610175,0.10373283,-0.089345278,-0.029681269,Subject C,Focused
0.382070666,0.036375392,0.066889216,-0.083303762,-0.160325155,Subject C,Focused
0.386274161,-0.328350552,0.068819452,-0.046029369,-0.312840788,Subject C,Focused
0.390449751,-0.423949232,0.075226545,0.000185039,-0.337402469,Subject C,Focused
0.394596846,-0.238599034,0.053425119,0.034293383,-0.159601294,Subject C,Focused
0.398714699,-0.050279482,0.009884624,0.048262272,0.100056595,Subject C,Focused
0.402802032,-0.066619918,-0.02479557,0.042183351,0.224267504,Subject C,Focused
0.406857355,-0.198882697,-0.037609594,0.017586691,0.127679881,Subject C,Focused
0.410879936,-0.224102518,-0.04449609,-0.020472171,-0.041672305,Subject C,Focused
0.41487015,-0.087680449,-0.058907737,-0.059395719,-0.061894851,Subject C,Focused
0.418828046,0.048558352,-0.065921108,-0.082616433,0.116141899,Subject C,Focused
0.422751343,0.046560171,-0.040916545,-0.07884825,0.328944329,Subject C,Focused
0.42663614,-0.024178938,0.01379878,-0.049010768,0.409132808,Subject C,Focused
0.430481241,-0.010076981,0.065536504,-0.006576877,0.365313737,Subject C,Focused
