timestamps,TP9,AF7,AF8,TP10,Subject,Emotion
0.038466639,-0.050493056,0.062586737,0.024664945,-0.19698773,Subject B,Focused
0.0390938,-0.464710114,0.019890385,-0.024790875,-0.501119419,Subject B,Focused
0.0397123,-0.14097995,0.070661712,-0.03222472,-0.629740481,Subject B,Focused
0.040321658,0.565341421,0.223570863,-0.022991491,-0.512889163,Subject B,Focused
0.040921925,0.819529579,0.38561954,-0.033051497,-0.302125321,Subject B,Focused
0.041513313,0.36234373,0.446295368,-0.064920735,-0.200105893,Subject B,Focused
0.042095829,-0.182639395,0.375723419,-0.090870722,-0.241612558,Subject B,Focused
0.042669289,-0.144451269,0.243267999,-0.09039554,-0.291259894,Subject B,Focused
0.043233523,0.322292035,0.152644895,-0.071552818,-0.241810187,Subject B,Focused
0.043788477,0.477510509,0.163359219,-0.056098473,-0.141151811,Subject B,Focused
0.044334154,0.014636034,0.260859381,-0.054450865,-0.094981429,Subject B,Focused
0.044870524,-0.511488346,0.383078934,-0.060164711,-0.106348552,Subject B,Focused
0.045397513,-0.419549173,0.468929387,-0.063444529,-0.083193418,Subject B,Focused
0.045915043,0.186498722,0.49078071,-0.063371181,0.004843363,Subject B,Focused
0.046423064,0.548804908,0.459482484,-0.066119545,0.04929887,Subject B,Focused
0.046921541,0.251433912,0.413288567,-0.075050375,-0.075823567,Subject B,Focused
0.047410438,-0.254513833,0.396116885,-0.086760173,-0.346640447,Subject B,Focused
0.04788971,-0.290697491,0.423146903,-0.09741733,-0.594453455,Subject B,Focused
0.048359314,0.124272433,0.457061185,-0.108607869,-0.680052615,Subject B,Focused
0.04881921,0.322274208,0.435232496,-0.122728586,-0.62112616,Subject B,Focused
0.049269371,-0.06902097,0.337913387,-0.13453326,-0.526812095,Subject B,Focused
0.049709767,-0.579069496,0.221013292,-0.132409827,-0.443446475,Subject B,Focused
0.050140371,-0.500730444,0.164557655,-0.108919976,-0.317113648,Subject B,Focused
0.050561157,0.156479598,0.194287069,-0.066781544,-0.1097306,Subject B,Focused
0.050972101,0.645892399,0.271055464,-0.014227578,0.102287213,Subject B,Focused
0.05137318,0.434384241,0.349032971,0.040216297,0.190900689,Subject B,Focused
0.051764374,-0.125059064,0.414032368,0.085166999,0.125932569,Subject B,Focused
0.052145662,-0.273626071,0.459854084,0.105060941,0.017093328,Subject B,Focused
0.052517026,0.166867988,0.463377924,0.091731007,-0.012236946,Subject B,Focused
0.052878448,0.594960298,0.412982551,0.058488466,0.031496645,Subject B,Focused
0.053229911,0.450218252,0.345350633,0.033663475,0.027803017,Subject B,Focused
0.0535714,-0.054200721,0.31912113,0.034136394,-0.098028082,Subject B,Focused
0.0539029,-0.248571483,0.346540174,0.049661192,-0.266072382,Subject B,Focused
0.054224397,0.073088318,0.373097341,0.059304487,-0.325564392,Subject B,Focused
0.05453588,0.37106085,0.335869814,0.060059234,-0.236556437,Subject B,Focused
0.054837338,0.102622315,0.231719255,0.06998712,-0.121802084,Subject B,Focused
0.055128764,-0.496644613,0.121098462,0.100445679,-0.116620931,Subject B,Focused
0.055410151,-0.65972873,0.071964698,0.133169812,-0.206792802,Subject B,Focused
0.055681496,-0.087563443,0.102922281,0.133864905,-0.265698357,Subject B,Focused
0.055942797,0.601061561,0.171348426,0.089598471,-0.23585127,Subject B,Focused
0.056194051,0.602863192,0.210732173,0.027957007,-0.199910783,Subject B,Focused
0.05643526,-0.062886957,0.186305681,-0.005304813,-0.238601829,Subject B,Focused
0.056666425,-0.579207455,0.12088661,0.010764233,-0.281338123,Subject B,Focused
0.056887547,-0.37177525,0.063928449,0.052757763,-0.18351763,Subject B,Focused
0.057098628,0.182062353,0.033941716,0.077789029,0.05199929,Subject B,Focused
0.05729967,0.29174325,-0.001555562,0.066089281,0.220496955,Subject B,Focused
0.057490675,-0.187791223,-0.08430768,0.03553857,0.138334324,Subject B,Focused
0.057671646,-0.582221922,-0.210491196,0.015880295,-0.126681293,Subject B,Focused
0.057842588,-0.323147131,-0.327601527,0.015452018,-0.322359514,Subject B,Focused
0.058003504,0.277862415,-0.386622469,0.016700985,-0.303784139,Subject B,Focused
0.058154397,0.439871488,-0.389023358,0.000698703,-0.186350095,Subject B,Focused
0.058295274,-0.049820488,-0.376867008,-0.030020585,-0.179756402,Subject B,Focused
0.05842614,-0.555108323,-0.383219287,-0.05593622,-0.327040202,Subject B,Focused
0.058547003,-0.42621323,-0.404216422,-0.06491409,-0.468218762,Subject B,Focused
0.05865787,0.170596267,-0.418608308,-0.064550349,-0.441226759,Subject B,Focused
0.05875875,0.512934633,-0.41518259,-0.066649145,-0.25229144,Subject B,Focused
0.058849655,0.289726325,-0.387631692,-0.06796706,-0.033038119,Subject B,Focused
0.058930595,-0.024233631,-0.320610387,-0.058511405,0.117611911,Subject B,Focused
0.059001584,0.140615245,-0.212791461,-0.046825691,0.206797023,Subject B,Focused
0.059062637,0.647878803,-0.113745454,-0.060528228,0.284859781,Subject B,Focused
0.059113769,0.825190119,-0.100054829,-0.111154232,0.357867401,Subject B,Focused
0.059155,0.373458521,-0.188312144,-0.166405527,0.387823117,Subject B,Focused
0.059186351,-0.201640449,-0.290961875,-0.172730905,0.372214761,Subject B,Focused
0.059207844,-0.220852905,-0.292917596,-0.110172371,0.388680658,Subject B,Focused
0.059219504,0.292065352,-0.17518893,-0.016545324,0.517410529,Subject B,Focused
0.059221359,0.639675544,-0.038961105,0.04963904,0.717607468,Subject B,Focused
0.059213437,0.36108685,0.002307623,0.06526184,0.83713641,Subject B,Focused
0.059195768,-0.164437755,-0.063322858,0.053932064,0.781940978,Subject B,Focused
0.059168384,-0.220579073,-0.153428543,0.046129166,0.633599149,Subject B,Focused
0.059131318,0.29600918,-0.193596899,0.04268436,0.547834496,Subject B,Focused
0.059084604,0.739229516,-0.183228107,0.024124184,0.565816998,Subject B,Focused
0.059028277,0.56631261,-0.162130011,-0.013651995,0.584525101,Subject B,Focused
0.058962374,0.03388085,-0.149964175,-0.046194612,0.498884149,Subject B,Focused
0.058886931,-0.17914628,-0.143439279,-0.045129441,0.311073688,Subject B,Focused
0.058801986,0.115561239,-0.149661166,-0.00892544,0.095908733,Subject B,Focused
0.058707579,0.399893511,-0.183039009,0.036176615,-0.08227399,Subject B,Focused
0.058603748,0.190690174,-0.228579012,0.063386646,-0.189646348,Subject B,Focused
0.058490535,-0.288154943,-0.241420415,0.067527231,-0.200001362,Subject B,Focused
0.058367979,-0.410924885,-0.197841782,0.060025153,-0.103820818,Subject B,Focused
0.058236123,-0.016427769,-0.12681631,0.0497017,0.049580313,Subject B,Focused
0.058095008,0.336904199,-0.074698212,0.034955495,0.150870878,Subject B,Focused
0.057944677,0.095401369,-0.053078994,0.01231146,0.113847256,Subject B,Focused
0.057785175,-0.527180113,-0.041084244,-0.014656251,-0.027294209,Subject B,Focused
0.057616547,-0.779104557,-0.031162243,-0.037969273,-0.133368301,Subject B,Focused
0.057438842,-0.335705401,-0.047822022,-0.053853252,-0.105163366,Subject B,Focused
0.057252107,0.254949695,-0.111363413,-0.065266504,-0.002213708,Subject B,Focused
0.057056393,0.260193316,-0.195055434,-0.075914364,0.018400647,Subject B,Focused
0.056851752,-0.292093142,-0.235360631,-0.083752733,-0.115152352,Subject B,Focused
0.056638236,-0.65653526,-0.193779943,-0.081480526,-0.302292875,Subject B,Focused
0.0564159,-0.357695326,-0.106293188,-0.063298238,-0.3857252,Subject B,Focused
0.056184801,0.177206187,-0.060140649,-0.030521056,-0.331131706,Subject B,Focused
0.055944997,0.17872186,-0.111095502,0.009906591,-0.25488023,Subject B,Focused
0.05569655,-0.447140563,-0.223766347,0.051079256,-0.268615505,Subject B,Focused
0.055439522,-0.981155261,-0.300667227,0.087733731,-0.334607488,Subject B,Focused
0.055173977,-0.810518081,-0.27286408,0.11273686,-0.3159223,Subject B,Focused
0.054899982,-0.200329997,-0.159303737,0.117637629,-0.161915165,Subject B,Focused
0.054617607,0.078796069,-0.038639078,0.102173054,0.00677992,Subject B,Focused
0.054326921,-0.246937613,0.028198681,0.081488865,0.025664379,Subject B,Focused
0.054027997,-0.644366684,0.042055336,0.076237278,-0.130272455,Subject B,Focused
0.053720907,-0.531368084,0.041545924,0.090930936,-0.328697582,Subject B,Focused
0.053405725,-0.06134369,0.051782446,0.105863945,-0.435682552,Subject B,Focused
0.053082526,0.112425412,0.064048901,0.097136752,-0.443909907,Subject B,Focused
0.052751383,-0.245528807,0.057646874,0.065519363,-0.426914371,Subject B,Focused
0.052412371,-0.604714669,0.029597032,0.039461626,-0.40798931,Subject B,Focused
0.052065565,-0.374634893,0.000295107,0.044511852,-0.336080954,Subject B,Focused
0.051711043,0.272556387,-0.005328219,0.073156496,-0.195147258,Subject B,Focused
0.051348882,0.580967369,0.019583391,0.09319407,-0.070551433,Subject B,Focused
0.050979159,0.188838278,0.057284851,0.086824235,-0.052239556,Subject B,Focused
0.050601953,-0.377580963,0.079965125,0.071274948,-0.098582415,Subject B,Focused
0.050217344,-0.364930857,0.071462941,0.073459028,-0.065008385,Subject B,Focused
0.049825412,0.238098493,0.035112887,0.092430985,0.110896802,Subject B,Focused
0.049426238,0.687153303,-0.017203073,0.100399594,0.301898409,Subject B,Focused
0.049019903,0.442881609,-0.077654246,0.079776343,0.322330568,Subject B,Focused
0.048606491,-0.147638319,-0.141626956,0.045035183,0.156488578,Subject B,Focused
0.048186084,-0.325948812,-0.200070366,0.022152171,-0.004206679,Subject B,Focused
0.047758771,0.092007093,-0.239577286,0.017515464,0.02108351,Subject B,Focused
0.047324637,0.516927814,-0.251174543,0.017815138,0.192107108,Subject B,Focused
0.04688377,0.402657281,-0.238564604,0.014204958,0.303242785,Subject B,Focused
0.046436259,-0.037624729,-0.220555993,0.011614152,0.228266817,Subject B,Focused
0.045982194,-0.163507334,-0.225969439,0.012021444,0.046164782,Subject B,Focused
0.045521666,0.188568163,-0.27741854,0.002787277,-0.090542988,Subject B,Focused
0.045054766,0.467766597,-0.367436251,-0.026480627,-0.146723018,Subject B,Focused
0.044581585,0.169334004,-0.448261492,-0.060665977,-0.197772718,Subject B,Focused
0.044102216,-0.429456108,-0.459112703,-0.067183096,-0.257233305,Subject B,Focused
0.043616754,-0.570261862,-0.3815883,-0.033073881,-0.208874224,Subject B,Focused
0.043125294,0.007590353,-0.271310764,0.014035312,0.033889598,Subject B,Focused
0.042627932,0.6891512,-0.219288805,0.032352858,0.354193939,Subject B,Focused
0.042124763,0.72556566,-0.265579342,0.012477463,0.508922832,Subject B,Focused
0.041615883,0.157288232,-0.352935648,-0.012644005,0.395307321,Subject B,Focused
0.04110139,-0.267117172,-0.381084889,-0.009285877,0.173341168,Subject B,Focused
0.040581377,-0.065920635,-0.312128018,0.013518827,0.075223883,Subject B,Focused
0.040055941,0.375800122,-0.209193541,0.013139289,0.132282973,Subject B,Focused
0.039525177,0.354890641,-0.160891865,-0.033836171,0.160070014,Subject B,Focused
0.038989179,-0.187536858,-0.179840494,-0.098827707,0.017994893,Subject B,Focused
0.038448044,-0.56746802,-0.194218381,-0.129100001,-0.182317988,Subject B,Focused
0.037901867,-0.253541842,-0.135700423,-0.103033304,-0.17884112,Subject B,Focused
0.037350743,0.431407396,-0.016231446,-0.047386709,0.147171573,Subject B,Focused
0.036794769,0.726569088,0.086060062,-0.000670824,0.62433171,Subject B,Focused
0.036234039,0.405750506,0.103964395,0.027209421,0.950921661,Subject B,Focused
0.035668649,0.027628497,0.043524574,0.050876883,0.978184911,Subject B,Focused
0.035098696,0.165229925,-0.015647687,0.075133528,0.81408689,Subject B,Focused
0.034524274,0.653647949,0.01870953,0.082172391,0.658661903,Subject B,Focused
0.03394548,0.829358683,0.170890229,0.057385485,0.579713903,Subject B,Focused
0.03336241,0.40941443,0.364731707,0.014152568,0.483439997,Subject B,Focused
0.032775161,-0.154370455,0.478037201,-0.020173034,0.281611599,Subject B,Focused
0.03218383,-0.281759404,0.441190844,-0.036622264,0.021569819,Subject B,Focused
0.031588513,-0.00077924,0.29169139,-0.046880288,-0.177635951,Subject B,Focused
0.030989308,0.153966891,0.141018296,-0.054062602,-0.268907627,Subject B,Focused
0.030386311,-0.087697853,0.087998372,-0.041050039,-0.296171962,Subject B,Focused
0.029779618,-0.351931117,0.14805586,0.001420762,-0.285476599,Subject B,Focused
0.029169327,-0.156285215,0.249724372,0.048562708,-0.194107131,Subject B,Focused
0.028555534,0.36759207,0.300038228,0.060400231,-0.00338956,Subject B,Focused
0.027938336,0.575139858,0.264515953,0.026005967,0.195119297,Subject B,Focused
0.027317831,0.147407951,0.190625061,-0.021711569,0.277602869,Subject B,Focused
0.026694117,-0.444853986,0.155629487,-0.038703803,0.239790113,Subject B,Focused
0.026067295,-0.50824776,0.193966095,-0.013184643,0.199331176,Subject B,Focused
0.025437466,-0.011919178,0.271840737,0.025526272,0.224779274,Subject B,Focused
0.024804729,0.371948217,0.319864012,0.039032811,0.222557357,Subject B,Focused
0.024169189,0.134610953,0.286102532,0.017852071,0.051031417,Subject B,Focused
0.023530947,-0.426761437,0.173782445,-0.01374839,-0.2749683,Subject B,Focused
0.022890106,-0.618581623,0.042834547,-0.029623816,-0.558872186,Subject B,Focused
0.02224677,-0.256041818,-0.033774133,-0.03296058,-0.625102922,Subject B,Focused
0.021601045,0.122747214,-0.031103038,-0.04841684,-0.508809972,Subject B,Focused
0.020953035,-0.008839767,0.011287332,-0.083984614,-0.400471248,Subject B,Focused
0.020302848,-0.470404634,0.041160128,-0.112838739,-0.41227862,Subject B,Focused
0.019650591,-0.636452707,0.05383326,-0.10221834,-0.456757788,Subject B,Focused
0.018996371,-0.294413069,0.086324423,-0.053334869,-0.390607903,Subject B,Focused
0.018340299,0.060874441,0.154740577,-0.000521117,-0.233138284,Subject B,Focused
0.017682485,-0.098632889,0.217951187,0.026881217,-0.163395079,Subject B,Focused
0.01702304,-0.600845639,0.217426092,0.028911951,-0.295367333,Subject B,Focused
0.016362079,-0.788871957,0.146527525,0.020336123,-0.533509342,Subject B,Focused
0.015699715,-0.412764301,0.064320043,0.007358256,-0.694383813,Subject B,Focused
0.015036064,0.010378737,0.034956276,-0.009961915,-0.715764739,Subject B,Focused
0.014371241,-0.120345785,0.06266018,-0.021294832,-0.680867768,Subject B,Focused
0.013705364,-0.663753012,0.097064802,-0.008586487,-0.662186876,Subject B,Focused
0.013038546,-0.89205161,0.098165566,0.03186549,-0.620741275,Subject B,Focused
0.012370907,-0.456022922,0.078534409,0.078713174,-0.489004631,Subject B,Focused
0.011702561,0.115817555,0.074067011,0.101756776,-0.306520417,Subject B,Focused
0.011033627,0.079312776,0.091962076,0.086274914,-0.210440613,Subject B,Focused
0.010364222,-0.544084905,0.112192764,0.041059542,-0.277957506,Subject B,Focused
0.009694462,-0.969146641,0.132910358,-0.012710105,-0.423106742,Subject B,Focused
0.009024466,-0.662175267,0.177846061,-0.057283083,-0.497736133,Subject B,Focused
0.00835435,-0.046067733,0.243312429,-0.084594163,-0.480056774,Subject B,Focused
0.007684231,0.049979112,0.268895654,-0.090927482,-0.498586211,Subject B,Focused
0.007014225,-0.512922401,0.197233757,-0.07212251,-0.645179409,Subject B,Focused
0.006344447,-0.992608274,0.05743642,-0.031030939,-0.824662061,Subject B,Focused
0.00567501,-0.746086715,-0.044740112,0.011993001,-0.855696556,Subject B,Focused
0.005006029,-0.084830854,-0.033644928,0.02792762,-0.696775292,Subject B,Focused
0.004337619,0.135659006,0.057464845,0.00685569,-0.49170772,Subject B,Focused
0.003669891,-0.348757185,0.129843561,-0.027833133,-0.37333253,Subject B,Focused
0.003002959,-0.858681187,0.128389793,-0.041295462,-0.296058822,Subject B,Focused
0.002336937,-0.671982663,0.08530775,-0.022069704,-0.124047228,Subject B,Focused
0.001671935,0.015198498,0.058792649,0.010908023,0.151969337,Subject B,Focused
0.001008068,0.342843973,0.056868335,0.033876713,0.371015927,Subject B,Focused
0.000345445,-0.074122288,0.038640241,0.042379656,0.397003407,Subject B,Focused
-0.000315821,-0.630078164,-0.024837391,0.048451771,0.294116234,Subject B,Focused
-0.000975618,-0.528428588,-0.11429684,0.06099851,0.24535854,Subject B,Focused
-0.001633836,0.156787045,-0.184473828,0.073716166,0.317436925,Subject B,Focused
-0.002290361,0.572430518,-0.203939755,0.070873374,0.382015031,Subject B,Focused
-0.002945083,0.218752946,-0.17162541,0.043777837,0.29850003,Subject B,Focused
-0.003597892,-0.37964394,-0.112275925,0.002414225,0.119983438,Subject B,Focused
-0.004248679,-0.353936274,-0.063262689,-0.030621509,0.055073369,Subject B,Focused
-0.004897336,0.381917607,-0.051489112,-0.03993818,0.229218372,Subject B,Focused
-0.005543755,1.035899001,-0.069506573,-0.028998173,0.533754233,Subject B,Focused
-0.006187832,0.972125555,-0.077944188,-0.009349207,0.738654016,Subject B,Focused
-0.006829466,0.5013437,-0.042011379,0.016920101,0.730975217,Subject B,Focused
-0.007468556,0.415214533,0.030778817,0.055308922,0.601548474,Subject B,Focused
-0.008104998,0.914376733,0.091277074,0.099757199,0.496468201,Subject B,Focused
-0.008738692,1.3472034,0.08922789,0.126454108,0.436893738,Subject B,Focused
-0.009369543,1.080073741,0.016109788,0.114960836,0.330645304,Subject B,Focused
-0.009997461,0.334376705,-0.087467246,0.0712819,0.13372429,Subject B,Focused
-0.010622355,-0.104944572,-0.16476503,0.022474124,-0.071126844,Subject B,Focused
-0.011244124,0.096562992,-0.188871765,-0.009228256,-0.180887932,Subject B,Focused
-0.011862664,0.429651074,-0.184014644,-0.019394178,-0.208178218,Subject B,Focused
-0.012477887,0.266689939,-0.200870516,-0.010984637,-0.253762975,Subject B,Focused
-0.01308973,-0.278604759,-0.26317973,0.016806911,-0.344271318,Subject B,Focused
-0.013698127,-0.49731373,-0.337034317,0.062494147,-0.35261238,Subject B,Focused
-0.014302969,-0.031720709,-0.359852193,0.110656983,-0.130292313,Subject B,Focused
-0.014904112,0.631682305,-0.304577366,0.136069835,0.287279841,Subject B,Focused
-0.015501469,0.76199273,-0.212882697,0.124594851,0.659572821,Subject B,Focused
-0.016095066,0.281204573,-0.16136975,0.089349834,0.759430034,Subject B,Focused
-0.016684945,-0.201768234,-0.194663006,0.061374789,0.590072371,Subject B,Focused
-0.017270954,-0.224070643,-0.290527284,0.059215827,0.346496861,Subject B,Focused
-0.017852736,-0.037507826,-0.383614046,0.068762891,0.182607223,Subject B,Focused
-0.018430094,-0.170050187,-0.416870049,0.05984089,0.083427619,Subject B,Focused
-0.019003361,-0.622699713,-0.377257933,0.024226669,-0.027380041,Subject B,Focused
-0.019573086,-0.842995873,-0.299927744,-0.011844099,-0.145990936,Subject B,Focused
-0.02013906,-0.526729579,-0.243781692,-0.020371548,-0.22466784,Subject B,Focused
-0.020699971,-0.116380937,-0.246834581,-0.008790871,-0.297047601,Subject B,Focused
-0.021254832,-0.253324864,-0.289417502,-0.009061863,-0.464921384,Subject B,Focused
-0.021804989,-0.891191493,-0.306479413,-0.029188245,-0.738383179,Subject B,Focused
-0.02235341,-1.285915302,-0.250995088,-0.035047856,-0.95692081,Subject B,Focused
-0.022900357,-0.92685503,-0.146165925,0.004950316,-0.931637983,Subject B,Focused
-0.023440564,-0.208481714,-0.063124643,0.069013406,-0.660536355,Subject B,Focused
-0.023968428,0.044406052,-0.044106582,0.098197962,-0.358235407,Subject B,Focused
-0.024488186,-0.396398356,-0.060568669,0.064476415,-0.250254758,Subject B,Focused
-0.025014289,-0.892758603,-0.054922229,0.002898818,-0.35570285,Subject B,Focused
-0.025553071,-0.76353297,-0.009589533,-0.032140691,-0.493615464,Subject B,Focused
-0.026082746,-0.137826875,0.041667206,-0.026329653,-0.490056317,Subject B,Focused
-0.026562879,0.249151697,0.061437737,-0.007243242,-0.343706613,Subject B,Focused
-0.026975346,0.029931733,0.044105712,0.001682175,-0.178257385,Subject B,Focused
-0.027352896,-0.332390301,0.003128064,0.007512228,-0.073293094,Subject B,Focused
-0.02775539,-0.191687762,-0.051776203,0.025151735,0.00455444,Subject B,Focused
-0.028215578,0.393941439,-0.108885888,0.045341434,0.106677937,Subject B,Focused
-0.028715344,0.726563934,-0.139577082,0.040844163,0.205818914,Subject B,Focused
-0.029214259,0.405037803,-0.113126622,0.003851182,0.242336086,Subject B,Focused
-0.029690551,-0.123458814,-0.034498593,-0.035424195,0.2331216,Subject B,Focused
-0.030150565,-0.148181104,0.043184267,-0.037490427,0.266236884,Subject B,Focused
-0.030608769,0.359083078,0.057740377,0.001440697,0.377222101,Subject B,Focused
-0.031069416,0.703177129,-0.005640483,0.042552635,0.483306278,Subject B,Focused
-0.031526924,0.38720172,-0.098614058,0.045244856,0.474960323,Subject B,Focused
-0.031976047,-0.230539738,-0.148983595,0.008320567,0.348094761,Subject B,Focused
-0.032417073,-0.413746518,-0.11410584,-0.033737924,0.20758503,Subject B,Focused
-0.032852994,-0.019877343,-0.005701384,-0.050188302,0.142388915,Subject B,Focused
-0.033285185,0.321791819,0.119763849,-0.042409738,0.132161585,Subject B,Focused
-0.03371269,0.055012457,0.192444466,-0.033781555,0.095684789,Subject B,Focused
