timestamps,TP9,AF7,AF8,TP10,Subject,Emotion
0.025214992,0.227661244,0.039489693,0.029222736,-0.079435234,Subject A,Focused
0.02529031,0.2522043,0.039011709,0.030559569,-0.08183531,Subject A,Focused
0.025330771,-0.052669042,0.028051182,0.016907557,-0.269496031,Subject A,Focused
0.025303503,-0.328376674,-0.005654328,-0.004602359,-0.441017528,Subject A,Focused
0.025226509,-0.288365952,-0.055375711,-0.01899346,-0.364172234,Subject A,Focused
0.025140104,-0.052942574,-0.093451359,-0.020264156,-0.039359171,Subject A,Focused
0.025065951,0.043771025,-0.099169501,-0.014205689,0.288268319,Subject A,Focused
0.024997596,-0.105843961,-0.074433024,-0.008643413,0.369181687,Subject A,Focused
0.024920466,-0.263381445,-0.031838846,-0.006873561,0.182122148,Subject A,Focused
0.024830203,-0.168142544,0.013415979,-0.008670058,-0.058736845,Subject A,Focused
0.024732288,0.131463146,0.03247621,-0.011283601,-0.106479674,Subject A,Focused
0.024631865,0.344948875,-0.014102498,-0.00885005,0.09533493,Subject A,Focused
0.024528548,0.290032496,-0.137426395,0.003879495,0.363673005,Subject A,Focused
0.024419244,0.078595311,-0.28789183,0.024107883,0.448220483,Subject A,Focused
0.024302482,-0.068142489,-0.383011558,0.038834177,0.263568333,Subject A,Focused
0.02417912,-0.103571588,-0.375839535,0.03253453,-0.050792502,Subject A,Focused
0.024050344,-0.159134052,-0.289542288,-0.000661241,-0.287698752,Subject A,Focused
0.023916237,-0.283709584,-0.186548515,-0.048828276,-0.349986144,Subject A,Focused
0.023776123,-0.314533738,-0.115529137,-0.08523709,-0.272602433,Subject A,Focused
0.023629542,-0.103059806,-0.086410644,-0.086229972,-0.14355279,Subject A,Focused
0.023476568,0.2064643,-0.078024098,-0.054986054,-0.058356728,Subject A,Focused
0.023317434,0.281881005,-0.060701502,-0.026346704,-0.097740202,Subject A,Focused
0.023152172,0.015117641,-0.021670959,-0.03753045,-0.261320801,Subject A,Focused
0.022980621,-0.3011378,0.024168692,-0.088726319,-0.429753925,Subject A,Focused
0.022802638,-0.298695522,0.054143824,-0.138610934,-0.463715603,Subject A,Focused
0.022618196,0.038639136,0.067686344,-0.144792572,-0.351721423,Subject A,Focused
0.022427324,0.377908175,0.084046673,-0.105524713,-0.214844784,Subject A,Focused
0.022230019,0.437800057,0.111091214,-0.057002339,-0.168280385,Subject A,Focused
0.022026237,0.278623969,0.136312101,-0.034229589,-0.225264248,Subject A,Focused
0.021815931,0.170394661,0.155632917,-0.042548091,-0.325481337,Subject A,Focused
0.021599079,0.257613209,0.189054624,-0.064774989,-0.392082628,Subject A,Focused
0.021375678,0.427809135,0.248094486,-0.083487931,-0.354607921,Subject A,Focused
0.021145725,0.494826601,0.298735928,-0.090139996,-0.181215089,Subject A,Focused
0.020909206,0.439013226,0.28100209,-0.0807904,0.081969814,Subject A,Focused
0.02066611,0.40950093,0.1722672,-0.054263725,0.334098601,Subject A,Focused
0.020416431,0.496676425,0.020698877,-0.015821977,0.491671339,Subject A,Focused
0.020160173,0.578590846,-0.091489072,0.022670396,0.518581287,Subject A,Focused
0.019897343,0.472753419,-0.114913675,0.048125336,0.411402304,Subject A,Focused
0.01962795,0.223319198,-0.062033727,0.050982392,0.214061721,Subject A,Focused
0.019352004,0.119273388,0.019539487,0.028218926,0.041429062,Subject A,Focused
0.019069523,0.350670817,0.087858104,-0.012185372,0.015945567,Subject A,Focused
0.018780525,0.724169809,0.121124275,-0.049953382,0.147527708,Subject A,Focused
0.018485036,0.851798136,0.11221007,-0.063067074,0.316972145,Subject A,Focused
0.018183079,0.620067186,0.07023373,-0.044923804,0.40965609,Subject A,Focused
0.017874684,0.33772217,0.026003439,-0.009403219,0.435476224,Subject A,Focused
0.017559882,0.351292835,0.015279114,0.023096369,0.481370306,Subject A,Focused
0.017238708,0.618110531,0.044843012,0.042033618,0.5678653,Subject A,Focused
0.0169112,0.787081489,0.083414911,0.048042697,0.6072132,Subject A,Focused
0.016577398,0.66569765,0.094852955,0.043905493,0.52056838,Subject A,Focused
0.016237344,0.451348065,0.074835245,0.030979892,0.356596447,Subject A,Focused
0.015891087,0.439501316,0.048327986,0.013448598,0.246109724,Subject A,Focused
0.015538676,0.622310798,0.037221647,-0.000337099,0.240936103,Subject A,Focused
0.015180164,0.715441749,0.039936456,-0.003459819,0.246675805,Subject A,Focused
0.014815608,0.554517718,0.041941498,0.004862706,0.146386694,Subject A,Focused
0.014445069,0.309087444,0.038072922,0.020672928,-0.041827986,Subject A,Focused
0.01406861,0.231738222,0.038595045,0.038093633,-0.18366849,Subject A,Focused
0.013686296,0.304570968,0.053072971,0.049682303,-0.199364381,Subject A,Focused
0.0132982,0.277591907,0.072510149,0.04830762,-0.155673633,Subject A,Focused
0.012904395,0.043032292,0.072956654,0.032933234,-0.160619187,Subject A,Focused
0.012504956,-0.181789347,0.039245279,0.011417305,-0.2155422,Subject A,Focused
0.012099966,-0.136451846,-0.017016583,-0.005605554,-0.23030048,Subject A,Focused
0.011689507,0.102995871,-0.06662078,-0.013207117,-0.172667455,Subject A,Focused
0.011273668,0.174875016,-0.090763825,-0.012688136,-0.135552658,Subject A,Focused
0.010852537,-0.115297617,-0.097258407,-0.00593193,-0.220105612,Subject A,Focused
0.010426209,-0.517380263,-0.10581502,0.006592369,-0.384252254,Subject A,Focused
0.00999478,-0.613463841,-0.119197538,0.023222049,-0.456108327,Subject A,Focused
0.009558349,-0.320435446,-0.117723892,0.041619256,-0.306208428,Subject A,Focused
0.009117017,0.006976615,-0.089778885,0.062963864,0.013482448,Subject A,Focused
0.008670887,-0.003875354,-0.061707412,0.09128305,0.306845702,Subject A,Focused
0.008220066,-0.325035647,-0.079011717,0.125730388,0.39995062,Subject A,Focused
0.007764662,-0.605102021,-0.146581485,0.155231457,0.276694809,Subject A,Focused
0.007304786,-0.599731079,-0.198825381,0.163261033,0.070696443,Subject A,Focused
0.006840552,-0.402350197,-0.151957601,0.139384045,-0.06249512,Subject A,Focused
0.006372077,-0.232376352,0.004346669,0.088844376,-0.062968292,Subject A,Focused
0.005899479,-0.124807393,0.17773602,0.03316036,0.026385407,Subject A,Focused
0.005422881,0.043818882,0.249375878,-0.002003302,0.127316857,Subject A,Focused
0.004942405,0.261182733,0.181951724,-0.006034279,0.169166134,Subject A,Focused
0.00445818,0.284293706,0.047748934,0.008506948,0.095121345,Subject A,Focused
0.003970332,-0.061946785,-0.047674394,0.020502848,-0.109271314,Subject A,Focused
0.003478996,-0.583617972,-0.059044138,0.021455337,-0.376451989,Subject A,Focused
0.002984305,-0.865020618,-0.016678521,0.016592464,-0.586654359,Subject A,Focused
0.002486395,-0.725149488,0.033083166,0.00792517,-0.667785728,Subject A,Focused
0.001985406,-0.411425359,0.075207259,-0.011693663,-0.654007544,Subject A,Focused
0.001481477,-0.289315629,0.107509078,-0.042794019,-0.634349663,Subject A,Focused
0.000974753,-0.428984632,0.105249401,-0.068052478,-0.662989651,Subject A,Focused
0.000465379,-0.587565301,0.041924088,-0.068643988,-0.73126573,Subject A,Focused
-4.65e-05,-0.553135516,-0.055654571,-0.049599276,-0.793351543,Subject A,Focused
-0.000560722,-0.387820945,-0.111998716,-0.037444618,-0.784319621,Subject A,Focused
-0.001077146,-0.298570235,-0.086859439,-0.048522427,-0.642420558,Subject A,Focused
-0.001595613,-0.35258137,-0.033216239,-0.06788195,-0.374139942,Subject A,Focused
-0.002115964,-0.409902238,-0.039180796,-0.068025248,-0.0990253,Subject A,Focused
-0.00263804,-0.335322245,-0.116754805,-0.044970908,0.026339857,Subject A,Focused
-0.003161682,-0.198268611,-0.182240004,-0.024513194,-0.041323819,Subject A,Focused
-0.003686725,-0.190971982,-0.159415531,-0.029778801,-0.180621265,Subject A,Focused
-0.004213008,-0.356394081,-0.073557542,-0.052865204,-0.223397265,Subject A,Focused
-0.004740366,-0.48348403,-0.014587565,-0.067471302,-0.1116263,Subject A,Focused
-0.005268634,-0.344491649,-0.020714068,-0.063388951,0.067327115,Subject A,Focused
-0.005797647,-0.004203443,-0.037007011,-0.055454338,0.174010405,Subject A,Focused
-0.00632724,0.206379406,0.000265772,-0.057000433,0.125888263,Subject A,Focused
-0.006857249,0.061883549,0.070221536,-0.056988177,-0.059144275,Subject A,Focused
-0.007387506,-0.28430598,0.089675951,-0.03387919,-0.285412089,Subject A,Focused
-0.007917849,-0.477385972,0.020401455,0.011455063,-0.446893021,Subject A,Focused
-0.008448113,-0.380680002,-0.078168174,0.048201198,-0.509836853,Subject A,Focused
-0.008978136,-0.210083543,-0.114893187,0.045845258,-0.540858066,Subject A,Focused
-0.009507755,-0.216504978,-0.066620023,0.006437657,-0.629382354,Subject A,Focused
-0.010036812,-0.344444127,0.003811717,-0.038600256,-0.775796931,Subject A,Focused
-0.010565148,-0.328862551,0.019814605,-0.060313352,-0.88312619,Subject A,Focused
-0.011092607,-0.094053986,-0.034074843,-0.055404167,-0.869622139,Subject A,Focused
-0.011619038,0.1058366,-0.107234744,-0.041159141,-0.760286085,Subject A,Focused
-0.012144289,0.01724494,-0.139803368,-0.035967335,-0.642919853,Subject A,Focused
-0.012668209,-0.252973616,-0.11875948,-0.046611029,-0.553768754,Subject A,Focused
-0.01319065,-0.348451055,-0.079983914,-0.068387817,-0.446055018,Subject A,Focused
-0.013711463,-0.119308315,-0.059965677,-0.09213864,-0.27832369,Subject A,Focused
-0.014230501,0.170593267,-0.055140454,-0.110336259,-0.097049608,Subject A,Focused
-0.014747619,0.165978343,-0.037920906,-0.117625251,0.005752166,Subject A,Focused
-0.015262672,-0.128756815,-0.005653532,-0.108487704,0.011888981,Subject A,Focused
-0.015775514,-0.341105785,0.008438945,-0.079575489,0.014770667,Subject A,Focused
-0.016286005,-0.183243222,-0.017533689,-0.03702875,0.111439344,Subject A,Focused
-0.016794003,0.194013843,-0.055067812,0.001954038,0.27444509,Subject A,Focused
-0.017299368,0.386158766,-0.056286189,0.019914262,0.373158174,Subject A,Focused
-0.017801962,0.223879431,-0.018373249,0.012680422,0.334369277,Subject A,Focused
-0.01830165,-0.050181205,0.008009223,-0.008591037,0.242155812,Subject A,Focused
-0.018798299,-0.12190763,-0.01769659,-0.027632362,0.239832943,Subject A,Focused
-0.019291775,0.005064317,-0.071142836,-0.034704182,0.352406109,Subject A,Focused
-0.019781952,0.075311466,-0.085301835,-0.031784052,0.452964144,Subject A,Focused
-0.020268701,-0.034947159,-0.022358614,-0.029924161,0.408162616,Subject A,Focused
-0.0207519,-0.167511183,0.084103228,-0.038974177,0.224415145,Subject A,Focused
-0.021231427,-0.140474508,0.156165788,-0.054853986,0.043463351,Subject A,Focused
-0.021707164,-0.009549714,0.138071296,-0.058518892,0.010737134,Subject A,Focused
-0.022178994,0.033891136,0.043361995,-0.035190262,0.140459034,Subject A,Focused
-0.022646802,-0.047262706,-0.053431511,0.002836741,0.288635326,Subject A,Focused
-0.023110479,-0.082448624,-0.072765401,0.02071585,0.272386812,Subject A,Focused
-0.023569915,0.050366313,0.006921659,-0.002711677,0.050171771,Subject A,Focused
-0.024025005,0.217017901,0.127045885,-0.045987072,-0.220069216,Subject A,Focused
-0.024475646,0.165498578,0.192618493,-0.063202222,-0.338074592,Subject A,Focused
-0.024921737,-0.14541257,0.15513509,-0.034569021,-0.276658584,Subject A,Focused
-0.025363179,-0.445305447,0.059583794,0.009505761,-0.195857017,Subject A,Focused
-0.025799878,-0.437995408,0.000398486,0.021764474,-0.234384488,Subject A,Focused
-0.026231738,-0.156043222,0.026348687,-0.009662842,-0.350465077,Subject A,Focused
-0.026658668,0.053174345,0.098158609,-0.051102619,-0.410180373,Subject A,Focused
-0.027080576,-0.069409275,0.142485084,-0.063200918,-0.369270218,Subject A,Focused
-0.027497375,-0.368215955,0.132717078,-0.040171908,-0.282297246,Subject A,Focused
-0.027908977,-0.438272732,0.105596966,-0.006490066,-0.162590143,Subject A,Focused
-0.028315298,-0.110989105,0.107761209,0.014860733,0.050195987,Subject A,Focused
-0.028716254,0.329590312,0.141450597,0.02115589,0.344378605,Subject A,Focused
-0.029111765,0.479231356,0.166569494,0.021484589,0.5506175,Subject A,Focused
-0.029501751,0.286824332,0.151031338,0.021418777,0.495359326,Subject A,Focused
-0.029886137,0.08092192,0.113304998,0.019970941,0.219447946,Subject A,Focused
-0.030264847,0.139065071,0.108979888,0.015504435,-0.034016204,Subject A,Focused
-0.03063781,0.369080914,0.170874731,0.009454831,-0.061890987,Subject A,Focused
-0.031004958,0.491094759,0.266183741,0.006352133,0.121781056,Subject A,Focused
-0.031366223,0.428722915,0.320421717,0.012811378,0.358162625,Subject A,Focused
-0.031721544,0.364055178,0.284301,0.033078938,0.522476293,Subject A,Focused
-0.032070859,0.412494217,0.173195549,0.061346528,0.583681705,Subject A,Focused
-0.032414109,0.417947294,0.044649759,0.080709684,0.54213478,Subject A,Focused
-0.032751239,0.188164615,-0.052658612,0.075135319,0.401338809,Subject A,Focused
-0.033082194,-0.16522459,-0.10603704,0.043992995,0.213638158,Subject A,Focused
-0.033406923,-0.305733234,-0.127764643,0.003231449,0.079650784,Subject A,Focused
-0.033725374,-0.110148999,-0.131959019,-0.027940996,0.051938225,Subject A,Focused
-0.034037497,0.137209591,-0.126984121,-0.040763881,0.073131709,Subject A,Focused
-0.034343245,0.0957507,-0.12364398,-0.038570958,0.054649273,Subject A,Focused
-0.03464257,-0.189698263,-0.1382599,-0.027983202,-0.007774192,Subject A,Focused
-0.034935427,-0.356574839,-0.177892847,-0.012138252,-0.049686722,Subject A,Focused
-0.035221772,-0.212930362,-0.222128496,0.005450294,-0.06006576,Subject A,Focused
-0.035501562,0.014340771,-0.228998963,0.013540874,-0.122732711,Subject A,Focused
-0.035774756,0.00319616,-0.1712771,-0.002511941,-0.298263968,Subject A,Focused
-0.036041311,-0.208890828,-0.071413267,-0.043687843,-0.494982364,Subject A,Focused
-0.036301192,-0.253751572,0.007118356,-0.086963586,-0.512559205,Subject A,Focused
-0.036554361,0.082777952,0.01439037,-0.098772072,-0.238526576,Subject A,Focused
-0.036800784,0.549191087,-0.037281969,-0.063347586,0.210211085,Subject A,Focused
-0.037040427,0.705006187,-0.08496055,0.0011927,0.564222852,Subject A,Focused
-0.037273258,0.45238325,-0.079679817,0.055838566,0.635668505,Subject A,Focused
-0.037499246,0.151699696,-0.037876925,0.072845168,0.477689779,Subject A,Focused
-0.037718358,0.162430295,-0.025411267,0.05840301,0.30019639,Subject A,Focused
-0.037930565,0.389523083,-0.087923993,0.0423482,0.229294599,Subject A,Focused
-0.038135839,0.42878494,-0.194587065,0.042565328,0.185259635,Subject A,Focused
-0.038334151,0.131134443,-0.253288258,0.043434256,0.032315867,Subject A,Focused
-0.038525476,-0.163662345,-0.190644306,0.016965179,-0.183622687,Subject A,Focused
-0.038709787,-0.05900963,-0.023306685,-0.037313855,-0.239345965,Subject A,Focused
-0.038887063,0.350131509,0.151750568,-0.085459587,-0.020462615,Subject A,Focused
-0.03905728,0.547150568,0.23911701,-0.095343746,0.277872559,Subject A,Focused
-0.039220416,0.227796899,0.215378465,-0.06890731,0.349682309,Subject A,Focused
-0.039376451,-0.303557838,0.124432381,-0.031238409,0.163875583,Subject A,Focused
-0.039525364,-0.489582509,0.021374515,0.001911856,0.029828115,Subject A,Focused
-0.039667137,-0.176519678,-0.064291711,0.031110724,0.231376727,Subject A,Focused
-0.03980175,0.251573127,-0.118608049,0.051892597,0.68403279,Subject A,Focused
-0.039929188,0.382824231,-0.127252328,0.047202647,1.031580765,Subject A,Focused
-0.040049437,0.239395116,-0.094066584,0.012704655,1.035953308,Subject A,Focused
-0.040162485,0.134867388,-0.066286832,-0.022360524,0.787943509,Subject A,Focused
-0.040268321,0.198939945,-0.107980494,-0.018304529,0.538413,Subject A,Focused
-0.040366936,0.231483149,-0.229717784,0.029108818,0.40883999,Subject A,Focused
-0.040458325,0.047892464,-0.357331331,0.078422632,0.330643076,Subject A,Focused
-0.040542485,-0.191621984,-0.388865155,0.084060418,0.231485649,Subject A,Focused
-0.040619414,-0.14618561,-0.283563598,0.041083834,0.170406659,Subject A,Focused
-0.040689113,0.236916261,-0.092487276,-0.01584548,0.223568049,Subject A,Focused
-0.040751585,0.576536007,0.084956555,-0.04930704,0.308623712,Subject A,Focused
-0.040806835,0.48382803,0.162013461,-0.045405907,0.25839638,Subject A,Focused
-0.040854869,0.05286321,0.101325193,-0.010082648,0.084760732,Subject A,Focused
-0.040895697,-0.234701508,-0.06806414,0.042282234,0.028687291,Subject A,Focused
-0.040929329,-0.107244119,-0.253478648,0.088991856,0.25009405,Subject A,Focused
-0.040955778,0.16524906,-0.345606645,0.102351423,0.565301899,Subject A,Focused
-0.040975057,0.153123455,-0.29888196,0.07223382,0.641127829,Subject A,Focused
-0.040987182,-0.142417765,-0.170146631,0.025528828,0.417871662,Subject A,Focused
-0.040992168,-0.290190407,-0.061618968,0.007255104,0.177288473,Subject A,Focused
-0.040990035,-0.026289612,-0.024754402,0.035043235,0.157891078,Subject A,Focused
-0.040980802,0.362322274,-0.033670214,0.081453,0.257937719,Subject A,Focused
-0.040964489,0.397103611,-0.045897746,0.107802707,0.227525742,Subject A,Focused
-0.04094112,0.038168854,-0.057870578,0.10663897,0.050754378,Subject A,Focused
-0.040910718,-0.255207072,-0.087394422,0.100942676,-0.028198709,Subject A,Focused
-0.040873309,-0.116630886,-0.12768802,0.107450683,0.145693047,Subject A,Focused
-0.040828921,0.262499665,-0.147657225,0.114862788,0.409774274,Subject A,Focused
-0.040777582,0.394104342,-0.130534973,0.10068824,0.471344581,Subject A,Focused
-0.040719322,0.121243213,-0.087351101,0.059474524,0.241468146,Subject A,Focused
-0.040654172,-0.201194324,-0.032955198,0.009303724,-0.092298491,Subject A,Focused
-0.040582164,-0.176973478,0.025574707,-0.023000494,-0.280620691,Subject A,Focused
-0.040503331,0.138048079,0.069379527,-0.018969415,-0.229027671,Subject A,Focused
-0.040417707,0.335364533,0.063466086,0.020911862,-0.025186431,Subject A,Focused
-0.040325323,0.177275456,-0.004377183,0.07438959,0.165799946,Subject A,Focused
-0.040226212,-0.138250136,-0.089239981,0.107795402,0.206306338,Subject A,Focused
-0.040120406,-0.266245426,-0.115772327,0.098272356,0.048488067,Subject A,Focused
-0.040007937,-0.133180989,-0.0463388,0.050169981,-0.236433579,Subject A,Focused
-0.039888839,0.040894081,0.080633765,-0.009637664,-0.488102422,Subject A,Focused
-0.039763143,0.07421035,0.179411202,-0.050234397,-0.565176567,Subject A,Focused
-0.039630881,0.03577178,0.184410943,-0.051787011,-0.455323556,Subject A,Focused
-0.039492081,0.090277884,0.100142068,-0.013194503,-0.275614406,Subject A,Focused
-0.039346778,0.233556689,-0.002320337,0.043966739,-0.163755317,Subject A,Focused
-0.039195008,0.291874774,-0.037445339,0.081930517,-0.176095347,Subject A,Focused
-0.039036806,0.170973463,0.031134256,0.072000584,-0.276980746,Subject A,Focused
-0.038872197,-0.010272727,0.159068477,0.022717063,-0.390950015,Subject A,Focused
-0.0387012,-0.100019395,0.245634381,-0.021725663,-0.447968816,Subject A,Focused
-0.038523847,-0.147509643,0.202856993,-0.019540331,-0.402805638,Subject A,Focused
-0.038340195,-0.334032845,0.025088783,0.030086666,-0.253622016,Subject A,Focused
-0.038150293,-0.669748487,-0.194463079,0.086933656,-0.061552557,Subject A,Focused
-0.037954146,-0.881961507,-0.322753877,0.105806693,0.070071613,Subject A,Focused
-0.037751721,-0.695610869,-0.284581401,0.072266549,0.074161441,Subject A,Focused
-0.03754304,-0.190452799,-0.121160764,0.009286948,-0.014855892,Subject A,Focused
-0.037328238,0.215734998,0.043120358,-0.043710219,-0.098643061,Subject A,Focused
-0.037107462,0.18788777,0.099373881,-0.059467863,-0.121229683,Subject A,Focused
-0.036880665,-0.158285832,0.034190294,-0.039821256,-0.109563244,Subject A,Focused
-0.036647593,-0.380714283,-0.073131373,-0.010836025,-0.111502299,Subject A,Focused
-0.03640815,-0.216882076,-0.126117292,4.86e-05,-0.141197013,Subject A,Focused
-0.036162769,0.11886385,-0.089225199,-0.014262885,-0.195776753,Subject A,Focused
-0.035912095,0.22128658,-0.001340497,-0.039351858,-0.269192923,Subject A,Focused
-0.035656017,0.014790348,0.076869937,-0.056553552,-0.318463999,Subject A,Focused
-0.035393316,-0.160347076,0.117239756,-0.058451749,-0.270317636,Subject A,Focused
-0.035123096,-0.010995208,0.1259236,-0.05012657,-0.119289238,Subject A,Focused
-0.034846793,0.31200694,0.112877924,-0.041193385,0.011865557,Subject A,Focused
-0.034567464,0.414553201,0.082467433,-0.037241312,-0.017449692,Subject A,Focused
-0.034285455,0.184083989,0.047812963,-0.03459855,-0.190904885,Subject A,Focused
-0.033995584,-0.066241831,0.027533805,-0.022044909,-0.328785503,Subject A,Focused
-0.033692332,-0.014161564,0.020217966,0.009226287,-0.271249972,Subject A,Focused
-0.033380015,0.25893004,0.000265341,0.055271045,-0.027297173,Subject A,Focused
-0.033073167,0.386210191,-0.0492249,0.099570216,0.257141614,Subject A,Focused
-0.032778201,0.175519168,-0.108689359,0.123609064,0.416971195,Subject A,Focused
-0.032473413,-0.186095407,-0.134873686,0.116939042,0.343299294,Subject A,Focused
-0.032118446,-0.391648475,-0.095054886,0.079837353,0.032693307,Subject A,Focused
