timestamps,TP9,AF7,AF8,TP10,Subject,Emotion
-0.002949674,0.061001176,0.058354687,-0.024174668,0.142845056,Subject C,Focused
-0.002744033,0.288958372,0.041784183,-0.042746957,0.154633059,Subject C,Focused
-0.002550261,0.450905904,0.054971586,0.011030957,0.392500246,Subject C,Focused
-0.002374761,0.418642693,0.109805458,0.08303708,0.658208532,Subject C,Focused
-0.002195812,0.275040986,0.162091854,0.106120635,0.680530304,Subject C,Focused
-0.001973047,0.231256138,0.168833574,0.07454619,0.473855047,Subject C,Focused
-0.001688404,0.357833513,0.141420124,0.041021038,0.329035292,Subject C,Focused
-0.001374694,0.486966675,0.123698611,0.045726069,0.440046768,Subject C,Focused
-0.001091837,0.439460991,0.134112995,0.070560457,0.663948281,Subject C,Focused
-0.000872644,0.288120053,0.150928125,0.072039831,0.732409738,Subject C,Focused
-0.000699054,0.291647739,0.147947104,0.04214596,0.61899745,Subject C,Focused
-0.000530696,0.5599803,0.125109137,0.015556252,0.561146112,Subject C,Focused
-0.00034585,0.884495812,0.100837291,0.017935223,0.716756864,Subject C,Focused
-0.000150921,0.969468767,0.08586155,0.028350255,0.933221036,Subject C,Focused
3.96e-05,0.780291662,0.071267865,0.008160928,0.943687157,Subject C,Focused
0.000221313,0.567708535,0.040396253,-0.041168096,0.721779672,Subject C,Focused
0.000399833,0.541837801,-0.010047704,-0.070567488,0.517797544,Subject C,Focused
0.00058032,0.614583472,-0.062455752,-0.042926386,0.52970537,Subject C,Focused
0.000762429,0.535817018,-0.094466574,0.013841928,0.64452038,Subject C,Focused
0.00094311,0.242293286,-0.10266778,0.03357845,0.5892391,Subject C,Focused
0.00112093,-0.03626996,-0.105856304,-0.008394509,0.291923833,Subject C,Focused
0.001296784,-0.058914776,-0.122879081,-0.063698862,-0.021469551,Subject C,Focused
0.001471894,0.11586997,-0.153108695,-0.07124685,-0.11991319,Subject C,Focused
0.001646372,0.193726068,-0.184238399,-0.032221012,-0.058288134,Subject C,Focused
0.001819572,0.006286013,-0.212981969,-0.002019914,-0.080069474,Subject C,Focused
0.001991061,-0.284318044,-0.245329133,-0.01423597,-0.272378846,Subject C,Focused
0.002160937,-0.384728468,-0.274821608,-0.042279469,-0.446213794,Subject C,Focused
0.002329453,-0.209562508,-0.274734597,-0.046446209,-0.395661698,Subject C,Focused
0.00249666,0.052153019,-0.225735547,-0.033325023,-0.171683298,Subject C,Focused
0.002662409,0.185524198,-0.149436485,-0.042655823,-0.006393035,Subject C,Focused
0.00282657,0.177061336,-0.099970784,-0.084247947,-0.010852134,Subject C,Focused
0.002989124,0.161734838,-0.112081347,-0.11704742,-0.052040677,Subject C,Focused
0.003150106,0.207421791,-0.162011159,-0.100904316,0.05543712,Subject C,Focused
0.003309519,0.235661314,-0.189878334,-0.050970791,0.313288415,Subject C,Focused
0.003467317,0.168636273,-0.161065704,-0.021295952,0.546762799,Subject C,Focused
0.003623452,0.08118029,-0.097476307,-0.038182259,0.616551881,Subject C,Focused
0.003777898,0.122846149,-0.047469861,-0.069629651,0.565555325,Subject C,Focused
0.003930649,0.292134729,-0.035847375,-0.069755562,0.536174327,Subject C,Focused
0.00408169,0.381943574,-0.050751103,-0.039760221,0.572262701,Subject C,Focused
0.004231,0.215981774,-0.070505543,-0.026369847,0.552168545,Subject C,Focused
0.004378554,-0.109287138,-0.086172741,-0.059458192,0.34271972,Subject C,Focused
0.004524334,-0.306676845,-0.094437231,-0.108088614,-0.006641635,Subject C,Focused
0.004668326,-0.222422758,-0.085626622,-0.11189602,-0.277038503,Subject C,Focused
0.004810515,-0.003534962,-0.055469146,-0.051657964,-0.31028717,Subject C,Focused
0.004950886,0.092119241,-0.022294314,0.026202688,-0.187673606,Subject C,Focused
0.005089421,0.001353297,-0.013132921,0.061109261,-0.123747733,Subject C,Focused
0.005226106,-0.095612751,-0.028644485,0.043871748,-0.195997222,Subject C,Focused
0.005360925,-0.034016164,-0.036068101,0.019202214,-0.272059105,Subject C,Focused
0.005493867,0.104298864,-0.005403154,0.026273148,-0.246302828,Subject C,Focused
0.005624918,0.10264127,0.055508703,0.051585425,-0.237289447,Subject C,Focused
0.005754066,-0.066374614,0.110037889,0.049927675,-0.414650531,Subject C,Focused
0.005881301,-0.15819738,0.131355488,0.005407564,-0.684987923,Subject C,Focused
0.006006613,0.02200609,0.122226805,-0.043983113,-0.746040373,Subject C,Focused
0.006129997,0.31234946,0.097645413,-0.050443957,-0.502588185,Subject C,Focused
0.006251447,0.360338979,0.060032465,-0.015265481,-0.248293739,Subject C,Focused
0.006370961,0.082158825,0.001126604,0.013063806,-0.294940596,Subject C,Focused
0.006488538,-0.204900055,-0.074293028,0.001208529,-0.52789827,Subject C,Focused
0.006604177,-0.179232652,-0.136719558,-0.027075873,-0.512350666,Subject C,Focused
0.006717884,0.077608824,-0.151413071,-0.025540075,-0.03861164,Subject C,Focused
0.006829661,0.201240678,-0.111076543,0.010410422,0.588976483,Subject C,Focused
0.006939516,0.023072605,-0.046245622,0.037937662,0.875075432,Subject C,Focused
0.007047457,-0.223020516,0.001201211,0.026051798,0.66645881,Subject C,Focused
0.007153495,-0.21065203,0.016359649,-0.004074542,0.282369133,Subject C,Focused
0.007257641,0.075301454,0.021397333,-0.013571441,0.13450235,Subject C,Focused
0.007359909,0.33929425,0.048133447,-0.004228476,0.291627163,Subject C,Focused
0.007460314,0.340407748,0.104679246,-0.015818393,0.460258783,Subject C,Focused
0.007558872,0.155771043,0.169526817,-0.063527656,0.363824646,Subject C,Focused
0.007655602,0.043018224,0.214008847,-0.103254012,0.060082029,Subject C,Focused
0.00775052,0.106656925,0.229087984,-0.079704728,-0.167300801,Subject C,Focused
0.007843646,0.197645005,0.231982982,-0.000353845,-0.179192219,Subject C,Focused
0.007935002,0.1549805,0.244902042,0.063646075,-0.132025706,Subject C,Focused
0.008024607,0.043326308,0.26581843,0.057798649,-0.23049265,Subject C,Focused
0.008112485,0.05683524,0.266782431,0.005588295,-0.433780221,Subject C,Focused
0.00819866,0.230837544,0.227439669,-0.027655231,-0.515959346,Subject C,Focused
0.008283156,0.375326523,0.163987618,-0.018819483,-0.386462744,Subject C,Focused
0.008366,0.331973219,0.115213489,-0.007664099,-0.222680304,Subject C,Focused
0.008447218,0.194211547,0.102709007,-0.03114903,-0.234763158,Subject C,Focused
0.008526835,0.168597963,0.113191434,-0.065177763,-0.389251121,Subject C,Focused
0.008604875,0.258370872,0.116942787,-0.054087671,-0.465140526,Subject C,Focused
0.008681363,0.222925547,0.094090251,0.013099225,-0.35535179,Subject C,Focused
0.008756324,-0.098037585,0.043573535,0.083066995,-0.199789965,Subject C,Focused
0.00882978,-0.52686074,-0.022344768,0.101036364,-0.17880202,Subject C,Focused
0.008901756,-0.722552754,-0.082928099,0.073342523,-0.259056142,Subject C,Focused
0.008972278,-0.570485111,-0.109416617,0.051457096,-0.238485872,Subject C,Focused
0.009041371,-0.281417883,-0.074700614,0.063290407,-0.027157783,Subject C,Focused
0.009109061,-0.095223486,0.019574246,0.081204563,0.214424339,Subject C,Focused
0.009175376,-0.003162131,0.124596068,0.063246627,0.268734562,Subject C,Focused
0.009240342,0.160008011,0.172727274,0.01088628,0.137329129,Subject C,Focused
0.009303987,0.419434578,0.13833073,-0.030059225,0.036805946,Subject C,Focused
0.009366338,0.584394789,0.062174371,-0.024725737,0.1168185,Subject C,Focused
0.009427423,0.498369281,0.005257974,0.010059081,0.270143003,Subject C,Focused
0.009487266,0.26825525,-0.012232632,0.031086702,0.282768909,Subject C,Focused
0.009545893,0.148725602,-0.012586388,0.026402621,0.120286434,Subject C,Focused
0.009603328,0.222728756,-0.01132237,0.028614997,-0.031543989,Subject C,Focused
0.009659595,0.299865626,0.006251879,0.065958096,-0.026537799,Subject C,Focused
0.009714715,0.172102236,0.049377412,0.118679397,0.02961997,Subject C,Focused
0.009768712,-0.101746958,0.08621339,0.142714973,-0.08588798,Subject C,Focused
0.009821605,-0.250347688,0.071414163,0.129052374,-0.38529822,Subject C,Focused
0.009873417,-0.118951115,0.005377753,0.114426003,-0.587471826,Subject C,Focused
0.009924167,0.136196585,-0.059788337,0.12487232,-0.433771406,Subject C,Focused
0.009973873,0.227987252,-0.081779109,0.130701407,-0.029432739,Subject C,Focused
0.010022554,0.070035589,-0.077405827,0.082015562,0.241107456,Subject C,Focused
0.010070225,-0.143752139,-0.096364965,-0.016430322,0.154950914,Subject C,Focused
0.010116903,-0.197885969,-0.156085009,-0.09355445,-0.09162327,Subject C,Focused
0.0101626,-0.122941033,-0.221070924,-0.088133275,-0.135287081,Subject C,Focused
0.01020733,-0.139026257,-0.248795179,-0.020013952,0.110318305,Subject C,Focused
0.010251105,-0.348045448,-0.240651979,0.035207861,0.379133637,Subject C,Focused
0.010293934,-0.564552487,-0.234776679,0.03710649,0.422403145,Subject C,Focused
0.010335827,-0.512480501,-0.2534525,0.021789122,0.323972892,Subject C,Focused
0.010376791,-0.159429915,-0.273849015,0.043549475,0.355140087,Subject C,Focused
0.010416834,0.230365998,-0.258020626,0.09614749,0.585587188,Subject C,Focused
0.01045596,0.403722258,-0.200470741,0.117787656,0.774699176,Subject C,Focused
0.010494173,0.399312702,-0.131870107,0.072751434,0.67536963,Subject C,Focused
0.010531476,0.438741598,-0.080881329,0.002147893,0.342855986,Subject C,Focused
0.01056787,0.584684627,-0.050670799,-0.023059984,0.053672471,Subject C,Focused
0.010603357,0.643578613,-0.035344649,0.013708601,-0.042341915,Subject C,Focused
0.010637936,0.450090417,-0.039141298,0.060844239,-0.073132168,Subject C,Focused
0.010671606,0.130043368,-0.065602389,0.068772102,-0.213411705,Subject C,Focused
0.010704369,-0.036880318,-0.098681978,0.048194109,-0.4082489,Subject C,Focused
0.010736224,0.028049727,-0.110013987,0.041987871,-0.441653764,Subject C,Focused
0.010767172,0.117693019,-0.085302377,0.057028649,-0.252261955,Subject C,Focused
0.010797211,0.033368962,-0.039488959,0.054220148,-0.049445486,Subject C,Focused
0.010826342,-0.154716555,-0.007911267,0.009838942,-0.056464454,Subject C,Focused
0.010854563,-0.232996611,-0.019436916,-0.039283709,-0.220251365,Subject C,Focused
0.010881873,-0.163087918,-0.067024267,-0.03354456,-0.278277848,Subject C,Focused
0.01090827,-0.137628008,-0.104737018,0.032861462,-0.097427536,Subject C,Focused
0.010933753,-0.292936985,-0.089877379,0.095572494,0.159933312,Subject C,Focused
0.010958317,-0.481808384,-0.034774634,0.090704282,0.254901524,Subject C,Focused
0.010981959,-0.438410794,-0.002205723,0.028981548,0.179529853,Subject C,Focused
0.011004671,-0.138197311,-0.038329913,-0.019201206,0.145845788,Subject C,Focused
0.011026449,0.127215927,-0.120607648,-0.009865528,0.278956701,Subject C,Focused
0.011047284,0.092750385,-0.183884084,0.027433896,0.43553088,Subject C,Focused
0.011067171,-0.13592358,-0.189467107,0.039514644,0.40059743,Subject C,Focused
0.011086101,-0.18975616,-0.154550795,0.022764579,0.196161859,Subject C,Focused
0.011104069,0.108667688,-0.119243733,0.017361392,0.069182793,Subject C,Focused
0.011121068,0.502319031,-0.104003138,0.037085818,0.158264373,Subject C,Focused
0.011137092,0.585728712,-0.10609181,0.042438988,0.28974827,Subject C,Focused
0.011152134,0.282109103,-0.122904691,-0.000853036,0.19630944,Subject C,Focused
0.011166188,-0.068935514,-0.159524168,-0.062543037,-0.118515711,Subject C,Focused
0.011179246,-0.113607343,-0.209417908,-0.076599331,-0.355414898,Subject C,Focused
0.011191302,0.125056862,-0.241055901,-0.024554908,-0.277543725,Subject C,Focused
0.011202351,0.332695443,-0.219477923,0.036549246,0.003088457,Subject C,Focused
0.011212387,0.316137062,-0.14369701,0.040181944,0.164826002,Subject C,Focused
0.011221403,0.202238953,-0.052145772,-0.011583813,0.055656085,Subject C,Focused
0.011229393,0.202899005,0.016112363,-0.053275174,-0.146837693,Subject C,Focused
0.01123635,0.302184729,0.058339548,-0.035540185,-0.162276084,Subject C,Focused
0.011242267,0.293083579,0.096860444,0.01890612,0.068883954,Subject C,Focused
0.011247137,0.094491282,0.137074989,0.049001132,0.341891033,Subject C,Focused
0.011250952,-0.106523791,0.154616939,0.034506396,0.449776208,Subject C,Focused
0.011253705,-0.097332966,0.131354434,0.020820187,0.416458933,Subject C,Focused
0.01125539,0.066968624,0.089096337,0.057033122,0.425521096,Subject C,Focused
0.011255998,0.139811456,0.067741332,0.124844837,0.558959102,Subject C,Focused
0.011255524,0.034045796,0.071924466,0.151016695,0.684751297,Subject C,Focused
0.01125396,-0.049494801,0.062421147,0.093269612,0.625124005,Subject C,Focused
0.0112513,0.083599547,0.012424897,-0.00420602,0.382089564,Subject C,Focused
0.011247538,0.304537961,-0.046466493,-0.055871165,0.136744892,Subject C,Focused
0.01124267,0.285022383,-0.057281718,-0.029471027,0.033582183,Subject C,Focused
0.011236693,-0.06710597,-0.009059256,0.021688826,0.03352669,Subject C,Focused
0.011229602,-0.438368624,0.049219633,0.025587609,0.018197535,Subject C,Focused
0.011221396,-0.46266359,0.067423768,-0.025142801,-0.02031913,Subject C,Focused
0.011212073,-0.16563878,0.045108028,-0.072090511,0.011764683,Subject C,Focused
0.011201633,0.069664182,0.015931886,-0.066360594,0.115700205,Subject C,Focused
0.011190078,-0.024273239,0.000560774,-0.023298509,0.128050562,Subject C,Focused
0.011177407,-0.292987105,-0.006278867,0.006719875,-0.081716834,Subject C,Focused
0.011163624,-0.397517425,-0.007088073,0.005954613,-0.399446805,Subject C,Focused
0.011148732,-0.256353617,0.017854704,0.005714728,-0.547873827,Subject C,Focused
0.011132736,-0.107571952,0.084956235,0.035085726,-0.381424669,Subject C,Focused
0.011115642,-0.147410954,0.168254863,0.077122089,-0.032560572,Subject C,Focused
0.011097456,-0.266280996,0.208291793,0.09334344,0.253064783,Subject C,Focused
0.011078185,-0.232023027,0.172729589,0.077806289,0.369935461,Subject C,Focused
0.011057838,-0.040472343,0.096733724,0.060728424,0.399162832,Subject C,Focused
0.011036425,0.060578488,0.047523406,0.058155492,0.438199443,Subject C,Focused
0.011013955,-0.097176769,0.053551972,0.044071078,0.457076061,Subject C,Focused
0.010990438,-0.37274792,0.083467413,-0.01154597,0.357871038,Subject C,Focused
0.010965885,-0.495000881,0.092931558,-0.090432192,0.146403519,Subject C,Focused
0.010940306,-0.401020968,0.074467492,-0.134502456,-0.022632444,Subject C,Focused
0.010913713,-0.287715933,0.054142418,-0.111325017,-0.017760853,Subject C,Focused
0.010886117,-0.331368309,0.052668819,-0.055800809,0.085234068,Subject C,Focused
0.01085753,-0.456526442,0.064935538,-0.031661148,0.07861535,Subject C,Focused
0.010827966,-0.444726724,0.077201391,-0.056160288,-0.099755261,Subject C,Focused
0.01079744,-0.229854484,0.09215196,-0.082221744,-0.26308402,Subject C,Focused
0.010765965,-0.001392523,0.125593975,-0.06297963,-0.225923145,Subject C,Focused
0.01073356,0.013507097,0.175796741,-0.016313148,-0.083618394,Subject C,Focused
0.010700239,-0.1844422,0.206663208,-0.00333666,-0.117408472,Subject C,Focused
0.010666021,-0.382799364,0.178393971,-0.046938661,-0.426636708,Subject C,Focused
0.010630923,-0.423479816,0.09770559,-0.09836561,-0.777958279,Subject C,Focused
0.010594962,-0.372146091,0.020008834,-0.098429727,-0.883249278,Subject C,Focused
0.010558158,-0.384643479,-0.010155093,-0.053383223,-0.750690253,Subject C,Focused
0.01052053,-0.468865412,-0.007510708,-0.024415544,-0.655037955,Subject C,Focused
0.010482098,-0.468859687,-0.018840475,-0.045330068,-0.766645296,Subject C,Focused
0.010442881,-0.289954926,-0.056083486,-0.07946508,-0.921529692,Subject C,Focused
0.010402902,-0.059878359,-0.077194599,-0.072417188,-0.83369313,Subject C,Focused
0.010362182,0.000477581,-0.036422557,-0.026771783,-0.473860028,Subject C,Focused
0.010320743,-0.146026664,0.060608294,0.002249471,-0.117290887,Subject C,Focused
0.01027861,-0.273979241,0.15849868,-0.018593222,0.000249039,Subject C,Focused
0.010235806,-0.147039405,0.200787941,-0.057828522,-0.0414627,Subject C,Focused
0.010192357,0.176177137,0.172139194,-0.06346529,0.001794093,Subject C,Focused
0.010148286,0.376874659,0.100165519,-0.032072011,0.188745258,Subject C,Focused
0.010103617,0.258308746,0.026553818,-0.010889009,0.330399497,Subject C,Focused
0.010058372,0.010783842,-0.021434724,-0.032366342,0.277110417,Subject C,Focused
0.010012573,-0.00960139,-0.03797709,-0.069872573,0.128699625,Subject C,Focused
0.009966241,0.265039941,-0.027993262,-0.074226442,0.07899173,Subject C,Focused
0.009919399,0.513763064,0.002405645,-0.041201097,0.134623591,Subject C,Focused
0.009872066,0.422466292,0.044769475,-0.016869519,0.1064901,Subject C,Focused
0.009824266,0.076439107,0.085541534,-0.032884771,-0.11936711,Subject C,Focused
0.009776021,-0.141003278,0.11124272,-0.062187415,-0.39709174,Subject C,Focused
0.009727352,-0.008914005,0.115865208,-0.057958351,-0.470259002,Subject C,Focused
0.009678283,0.276966959,0.101157588,-0.021612659,-0.282068311,Subject C,Focused
0.009628838,0.349183085,0.073068014,-0.003567649,-0.068062897,Subject C,Focused
0.009579042,0.101722177,0.041949256,-0.032738648,-0.096698284,Subject C,Focused
0.009528919,-0.208204737,0.023064924,-0.070435425,-0.345073466,Subject C,Focused
0.009478494,-0.29174008,0.029205099,-0.055427576,-0.505948928,Subject C,Focused
0.009427792,-0.165283241,0.058340869,0.013871101,-0.343681008,Subject C,Focused
0.009376839,-0.076333547,0.08883205,0.067973767,0.024812286,Subject C,Focused
0.009325659,-0.143126212,0.090301408,0.046976141,0.27633952,Subject C,Focused
0.009274274,-0.200891803,0.045769428,-0.024127875,0.272920925,Subject C,Focused
0.009222709,-0.053709626,-0.031416076,-0.061185043,0.205056002,Subject C,Focused
0.009170984,0.222017069,-0.104072846,-0.01956762,0.317473779,Subject C,Focused
0.009119121,0.339669754,-0.140705342,0.053796404,0.581975495,Subject C,Focused
0.009067141,0.153569487,-0.141486181,0.077624898,0.736472808,Subject C,Focused
0.009015064,-0.156684396,-0.133512982,0.030882321,0.628378909,Subject C,Focused
0.008962911,-0.302988705,-0.140109676,-0.029707006,0.412517306,Subject C,Focused
0.008910699,-0.222859874,-0.156965825,-0.043714905,0.354848026,Subject C,Focused
0.008858449,-0.104146507,-0.159181855,-0.015056561,0.507503037,Subject C,Focused
0.008806177,-0.090645513,-0.129945666,0.006515999,0.670180368,Subject C,Focused
0.008753902,-0.086450932,-0.080070423,-0.005014807,0.662826251,Subject C,Focused
0.008701641,0.070890446,-0.037354094,-0.025597718,0.541005694,Subject C,Focused
0.008649408,0.330602134,-0.016452728,-0.023741351,0.490201331,Subject C,Focused
0.00859722,0.46737514,-0.003971746,-0.005739817,0.564964182,Subject C,Focused
0.008545092,0.401935168,0.020928353,-0.003930406,0.624456313,Subject C,Focused
0.00849304,0.33535212,0.054609564,-0.030307519,0.536644676,Subject C,Focused
0.008441077,0.472014102,0.068320616,-0.05920581,0.361680033,Subject C,Focused
0.008389208,0.701343517,0.041677483,-0.059212967,0.261260069,Subject C,Focused
0.008337441,0.700827084,-0.013128994,-0.031756994,0.263333283,Subject C,Focused
0.008285792,0.353540388,-0.065239177,-0.00867678,0.215232926,Subject C,Focused
0.008234282,-0.073994848,-0.093481861,-0.013397571,-0.001078681,Subject C,Focused
0.008182914,-0.243043622,-0.093641742,-0.034481771,-0.28294157,Subject C,Focused
0.008131664,-0.143180079,-0.068039383,-0.043698644,-0.410198794,Subject C,Focused
0.008080515,-0.066645275,-0.023631673,-0.033746329,-0.314142499,Subject C,Focused
0.008029493,-0.205406241,0.01998629,-0.024881705,-0.164524815,Subject C,Focused
0.007978657,-0.403555055,0.036743352,-0.031426497,-0.156686496,Subject C,Focused
0.007928012,-0.375352844,0.020246558,-0.036570646,-0.270122202,Subject C,Focused
0.007877446,-0.090439063,-0.001334103,-0.01606228,-0.312725985,Subject C,Focused
0.007826835,0.171923675,0.008820657,0.018882454,-0.191855193,Subject C,Focused
0.007776247,0.160828668,0.050500363,0.024944523,-0.047708602,Subject C,Focused
0.007725958,-0.048086531,0.079414966,-0.017198366,-0.066418778,Subject C,Focused
0.007676081,-0.1635341,0.0597907,-0.067436547,-0.226979241,Subject C,Focused
0.007626202,-0.047877103,0.017993332,-0.067982968,-0.327589698,Subject C,Focused
0.007575694,0.125469199,0.022231197,-0.015853352,-0.253886813,Subject C,Focused
0.007524684,0.116401476,0.100198715,0.029700294,-0.126754678,Subject C,Focused
0.007474406,-0.063788652,0.195049101,0.02037948,-0.137113978,Subject C,Focused
0.007425768,-0.174720501,0.224588358,-0.018653754,-0.290129738,Subject C,Focused
0.007377349,-0.072194596,0.1774652,-0.018226388,-0.394780684,Subject C,Focused
0.007326104,0.097917824,0.124165085,0.047647874,-0.317058965,Subject C,Focused
0.007271696,0.098232307,0.12689843,0.124281379,-0.170871206,Subject C,Focused
0.007219322,-0.071867556,0.165102496,0.136549949,-0.186807148,Subject C,Focused
