timestamps,TP9,AF7,AF8,TP10,Subject,Emotion
7.46e-05,-0.421606385,0.092224549,0.042974169,-0.403457095,Subject A,Focused
3.94e-06,-0.183505036,0.021347516,0.057426064,-0.265105951,Subject A,Focused
-6.51e-05,0.193929992,-0.053725041,0.086933457,-0.218693688,Subject A,Focused
-0.0001326,0.181755437,-0.097689042,0.086818091,-0.347089211,Subject A,Focused
-0.000198506,-0.220468775,-0.089807598,0.04446501,-0.540849476,Subject A,Focused
-0.000262836,-0.469279101,-0.038250055,-0.005635063,-0.590405133,Subject A,Focused
-0.000325586,-0.199874821,0.022149639,-0.02044717,-0.417088166,Subject A,Focused
-0.000386756,0.276593976,0.054555803,0.004108383,-0.17439843,Subject A,Focused
-0.000446342,0.374437294,0.05521335,0.033953491,-0.083916986,Subject A,Focused
-0.000504342,0.003490331,0.060761284,0.042107655,-0.191450601,Subject A,Focused
-0.000560752,-0.325835251,0.106137868,0.038406453,-0.338657445,Subject A,Focused
-0.000615567,-0.206708522,0.174113655,0.048363791,-0.38040111,Subject A,Focused
-0.000668783,0.100821137,0.202937094,0.074490214,-0.366322218,Subject A,Focused
-0.000720393,0.017407547,0.152460553,0.091756757,-0.457097455,Subject A,Focused
-0.000770392,-0.547877149,0.04966217,0.07989424,-0.692402255,Subject A,Focused
-0.000818773,-1.00977272,-0.044635764,0.049806678,-0.910192414,Subject A,Focused
-0.00086553,-0.815946442,-0.105523935,0.03295568,-0.91531077,Subject A,Focused
-0.000910653,-0.15101182,-0.162342516,0.048412308,-0.692710826,Subject A,Focused
-0.000954133,0.27583306,-0.246718963,0.085757636,-0.423994452,Subject A,Focused
-0.000995962,0.096661486,-0.339886777,0.119717701,-0.299200924,Subject A,Focused
-0.001036129,-0.293071246,-0.384847512,0.135365446,-0.3320449,Subject A,Focused
-0.001074622,-0.273662003,-0.348119496,0.135990072,-0.368573997,Subject A,Focused
-0.001111431,0.209413046,-0.260127965,0.132173486,-0.269508832,Subject A,Focused
-0.001146545,0.605493736,-0.188929246,0.131067809,-0.06626587,Subject A,Focused
-0.001179954,0.479256442,-0.17443305,0.135572138,0.076079346,Subject A,Focused
-0.001211645,0.044605213,-0.193480116,0.146186247,0.040852253,Subject A,Focused
-0.001241611,-0.151092323,-0.192325462,0.160597482,-0.122467851,Subject A,Focused
-0.00126984,0.0551669,-0.146336332,0.175779646,-0.270692685,Subject A,Focused
-0.001296324,0.265659933,-0.07885669,0.191969465,-0.324761196,Subject A,Focused
-0.001321054,0.097252788,-0.026861129,0.20911318,-0.320844691,Subject A,Focused
-0.001344022,-0.276948537,-0.003382671,0.216737392,-0.323341534,Subject A,Focused
-0.00136522,-0.356739899,0.003273569,0.194018638,-0.344832717,Subject A,Focused
-0.001384645,-0.009653218,0.007151224,0.128961196,-0.370042458,Subject A,Focused
-0.001402292,0.323863009,0.012158627,0.039908261,-0.405931875,Subject A,Focused
-0.001418162,0.22171395,0.016035637,-0.027427662,-0.454356231,Subject A,Focused
-0.001432257,-0.127410299,0.014994391,-0.033030529,-0.45722383,Subject A,Focused
-0.001444579,-0.163718445,0.002990506,0.021941035,-0.339818804,Subject A,Focused
-0.001455137,0.265354144,-0.023371279,0.094191065,-0.135036844,Subject A,Focused
-0.001463937,0.648167579,-0.05106035,0.13596319,-0.014206653,Subject A,Focused
-0.001470989,0.459715447,-0.047623143,0.132283428,-0.133438192,Subject A,Focused
-0.001476302,-0.124434317,0.013371428,0.100177429,-0.448568578,Subject A,Focused
-0.001479886,-0.415822361,0.116890221,0.059637122,-0.729519007,Subject A,Focused
-0.001481757,-0.087967243,0.204017537,0.015930083,-0.783144638,Subject A,Focused
-0.001481937,0.3967388,0.217534975,-0.031371714,-0.635562744,Subject A,Focused
-0.001480449,0.375204256,0.156454431,-0.074188456,-0.468096741,Subject A,Focused
-0.001477307,-0.169410819,0.084414381,-0.09846826,-0.403466301,Subject A,Focused
-0.00147252,-0.597435949,0.078421799,-0.099276091,-0.408394277,Subject A,Focused
-0.001466117,-0.441246472,0.161020979,-0.089393023,-0.400202106,Subject A,Focused
-0.001458152,0.010116571,0.277492442,-0.090736188,-0.379644875,Subject A,Focused
-0.001448674,0.112400997,0.341957611,-0.115794825,-0.4141005,Subject A,Focused
-0.001437692,-0.29583061,0.312365247,-0.15618004,-0.518467727,Subject A,Focused
-0.001425178,-0.710678869,0.224261789,-0.188436671,-0.604952095,Subject A,Focused
-0.001411161,-0.646311251,0.151959453,-0.191180626,-0.568610796,Subject A,Focused
-0.001395785,-0.270619146,0.138692596,-0.159400522,-0.407051986,Subject A,Focused
-0.001379209,-0.166449504,0.167842169,-0.10678126,-0.232965411,Subject A,Focused
-0.001361398,-0.549584253,0.198825515,-0.056278831,-0.159695825,Subject A,Focused
-0.001342111,-0.982698129,0.218392626,-0.026097653,-0.189948207,Subject A,Focused
-0.001321266,-0.957570898,0.248897363,-0.021159488,-0.236958945,Subject A,Focused
-0.001299311,-0.56071727,0.315008215,-0.035138196,-0.242748466,Subject A,Focused
-0.001276907,-0.334487524,0.414134948,-0.056909336,-0.238364631,Subject A,Focused
-0.00125396,-0.535148652,0.515633381,-0.072919234,-0.27792078,Subject A,Focused
-0.001229267,-0.796133565,0.578959116,-0.06889615,-0.348738779,Subject A,Focused
-0.001201953,-0.639109092,0.577901026,-0.039075732,-0.381418816,Subject A,Focused
-0.00117347,-0.124763588,0.521895022,0.004636785,-0.340075269,Subject A,Focused
-0.001146892,0.232951432,0.455581417,0.040924743,-0.266255132,Subject A,Focused
-0.001122588,0.152564033,0.42653065,0.06100542,-0.217724579,Subject A,Focused
-0.001095394,-0.063981083,0.44680274,0.07601095,-0.190089117,Subject A,Focused
-0.001059808,0.024489244,0.486421623,0.096558194,-0.134780756,Subject A,Focused
-0.00102017,0.375060042,0.502757702,0.111365938,-0.047590477,Subject A,Focused
-0.000991029,0.506187045,0.474277542,0.098112743,0.009332253,Subject A,Focused
-0.000978819,0.153798108,0.410484976,0.056624722,-0.002249957,Subject A,Focused
-0.000961852,-0.344659161,0.337885125,0.019517933,-0.02260047,Subject A,Focused
-0.000899791,-0.462791517,0.280514401,0.020266207,0.042452338,Subject A,Focused
-0.000774607,-0.156138456,0.249987759,0.053550405,0.194483382,Subject A,Focused
-0.000619147,0.095673543,0.245455317,0.075853682,0.32779685,Subject A,Focused
-0.000493366,-0.070102168,0.256848705,0.048461303,0.354519676,Subject A,Focused
-0.000430112,-0.426307109,0.269416392,-0.022722329,0.304982576,Subject A,Focused
-0.000411361,-0.475765713,0.270964254,-0.090287173,0.273194075,Subject A,Focused
-0.000396779,-0.13359296,0.258163209,-0.104122253,0.286414597,Subject A,Focused
-0.000364688,0.142977015,0.235066965,-0.047706322,0.275722115,Subject A,Focused
-0.000321525,-0.037456462,0.20520276,0.054590604,0.185501425,Subject A,Focused
-0.000281853,-0.454290527,0.168090592,0.157388003,0.07116885,Subject A,Focused
-0.000250018,-0.528613462,0.125113228,0.223696953,0.045214419,Subject A,Focused
-0.000220531,-0.070552224,0.084323036,0.244140376,0.13491792,Subject A,Focused
-0.000188237,0.452747577,0.0536401,0.234372305,0.245229752,Subject A,Focused
-0.000153518,0.500728119,0.030696477,0.216460505,0.289837406,Subject A,Focused
-0.000119458,0.155266524,0.006368965,0.202298926,0.320679287,Subject A,Focused
-8.75e-05,0.016333469,-0.020023679,0.190358208,0.468628537,Subject A,Focused
-5.69e-05,0.410116578,-0.035822019,0.172366558,0.751565456,Subject A,Focused
-2.63e-05,0.933257309,-0.029765435,0.141968323,0.997681677,Subject A,Focused
4.34e-06,0.943986132,-0.006991961,0.100586318,1.005435838,Subject A,Focused
3.43e-05,0.38045708,0.016259816,0.057131486,0.764423618,Subject A,Focused
6.31e-05,-0.152340419,0.031495588,0.021218015,0.474487055,Subject A,Focused
9.08e-05,-0.141700108,0.047786703,-0.003674051,0.337189841,Subject A,Focused
0.000117712,0.207799077,0.08195873,-0.020057065,0.357513801,Subject A,Focused
0.000143795,0.278105355,0.137785855,-0.030864308,0.371256244,Subject A,Focused
0.000168891,-0.145906999,0.192897191,-0.036094441,0.251628658,Subject A,Focused
0.000192841,-0.612825943,0.209474581,-0.036112009,0.056380837,Subject A,Focused
0.000215604,-0.613456931,0.165675028,-0.038276939,-0.041204066,Subject A,Focused
0.000237193,-0.23686825,0.080681228,-0.05756173,0.05548683,Subject A,Focused
0.000257587,-0.012373744,0.007100838,-0.104568994,0.271569786,Subject A,Focused
0.000276721,-0.179358605,-0.005024953,-0.168983179,0.449492236,Subject A,Focused
0.000294526,-0.382084621,0.057481512,-0.21847364,0.496784356,Subject A,Focused
0.00031096,-0.185735643,0.163648524,-0.222125977,0.441230473,Subject A,Focused
0.000325995,0.309755303,0.260309099,-0.179590353,0.380548777,Subject A,Focused
0.000339602,0.594951069,0.306891456,-0.124908836,0.40208753,Subject A,Focused
0.000351745,0.434020903,0.300142099,-0.09752531,0.525019138,Subject A,Focused
0.000362387,0.177382575,0.271727359,-0.109660857,0.6883645,Subject A,Focused
0.000371495,0.287804347,0.25988443,-0.143949521,0.796140905,Subject A,Focused
0.000379046,0.716812615,0.277547462,-0.178435428,0.788342101,Subject A,Focused
0.000385016,0.961584585,0.304153035,-0.204903942,0.679371864,Subject A,Focused
0.000389383,0.731564404,0.307794974,-0.222440016,0.545572482,Subject A,Focused
0.000392127,0.345319644,0.276312703,-0.224864639,0.480231548,Subject A,Focused
0.000393232,0.317551469,0.228362042,-0.205031029,0.525080989,Subject A,Focused
0.000392683,0.660041925,0.195924582,-0.169654525,0.610547039,Subject A,Focused
0.000390469,0.827587896,0.196767998,-0.140465849,0.58729641,Subject A,Focused
0.00038658,0.417452418,0.221387626,-0.134899914,0.366733146,Subject A,Focused
0.000381008,-0.281493878,0.239796118,-0.148118576,0.02911897,Subject A,Focused
0.000373743,-0.634637009,0.215621365,-0.15966757,-0.246984095,Subject A,Focused
0.000364782,-0.469483182,0.121020651,-0.157356261,-0.36351966,Subject A,Focused
0.000354118,-0.275343166,-0.04253352,-0.147321721,-0.373595292,Subject A,Focused
0.000341749,-0.519086917,-0.226615122,-0.138400571,-0.372517165,Subject A,Focused
0.000327674,-0.987679766,-0.350915339,-0.126641193,-0.369142463,Subject A,Focused
0.000311892,-1.045788197,-0.358286396,-0.105008488,-0.298405695,Subject A,Focused
0.000294406,-0.479959342,-0.263763462,-0.082616147,-0.134973265,Subject A,Focused
0.000275222,0.18788303,-0.143328888,-0.080361415,0.050954298,Subject A,Focused
0.000254348,0.342207663,-0.070317161,-0.105094936,0.163239111,Subject A,Focused
0.000231794,0.038045597,-0.06387848,-0.138771593,0.183050551,Subject A,Focused
0.000207572,-0.105849069,-0.093562137,-0.159121161,0.177963475,Subject A,Focused
0.000181695,0.264649788,-0.1204885,-0.163733253,0.207820729,Subject A,Focused
0.000154182,0.775772989,-0.129628266,-0.165507965,0.248194546,Subject A,Focused
0.000125048,0.822851537,-0.133690563,-0.168291046,0.231907284,Subject A,Focused
9.43e-05,0.364613773,-0.156639602,-0.158118234,0.154890125,Subject A,Focused
6.2e-05,-0.022277131,-0.208210499,-0.122449165,0.101029384,Subject A,Focused
2.81e-05,0.114582295,-0.263771351,-0.071407901,0.142529684,Subject A,Focused
-7.28e-06,0.540575601,-0.274028411,-0.032737716,0.243549497,Subject A,Focused
-4.42e-05,0.668950961,-0.211592579,-0.025739872,0.301625866,Subject A,Focused
-8.26e-05,0.328536775,-0.112721276,-0.044336861,0.27771051,Subject A,Focused
-0.00012243,-0.045443146,-0.058425244,-0.06699334,0.235545301,Subject A,Focused
-0.000163684,-0.021373808,-0.100115714,-0.079674745,0.229588984,Subject A,Focused
-0.000206319,0.248219683,-0.205228933,-0.085663013,0.199529037,Subject A,Focused
-0.000250301,0.242207174,-0.285683622,-0.095722984,0.034275954,Subject A,Focused
-0.000295597,-0.220912127,-0.284162164,-0.116092793,-0.267642944,Subject A,Focused
-0.000342171,-0.731566584,-0.228961967,-0.147961116,-0.562704403,Subject A,Focused
-0.000389989,-0.822427033,-0.199725854,-0.190272208,-0.714015255,Subject A,Focused
-0.000439015,-0.567026853,-0.240301776,-0.235059572,-0.738386486,Subject A,Focused
-0.000489212,-0.44419426,-0.310322953,-0.264251534,-0.756418107,Subject A,Focused
-0.000540543,-0.657366019,-0.325168229,-0.261425102,-0.807101756,Subject A,Focused
-0.000592969,-0.836378565,-0.242112431,-0.228766648,-0.769246986,Subject A,Focused
-0.000646454,-0.543466931,-0.105723445,-0.186120938,-0.508997572,Subject A,Focused
-0.000700957,0.086728743,-0.008646467,-0.150617044,-0.084756576,Subject A,Focused
-0.00075644,0.456087601,-0.007822915,-0.121789054,0.258976946,Subject A,Focused
-0.000812866,0.256466818,-0.079691654,-0.090242738,0.334119168,Subject A,Focused
-0.000870197,-0.120817039,-0.15600865,-0.057498095,0.207669606,Subject A,Focused
-0.000928395,-0.078075924,-0.193671428,-0.0402785,0.113975337,Subject A,Focused
-0.000987423,0.429945305,-0.197913207,-0.051202738,0.190187105,Subject A,Focused
-0.001047245,0.864532913,-0.184104167,-0.077916984,0.353140036,Subject A,Focused
-0.001107826,0.825678075,-0.144124898,-0.089260782,0.439185052,Subject A,Focused
-0.001169127,0.562803931,-0.06861191,-0.067820796,0.402551197,Subject A,Focused
-0.001231114,0.602863038,0.011751389,-0.033110567,0.327201623,Subject A,Focused
-0.001293748,1.001820481,0.037218437,-0.024860501,0.27342502,Subject A,Focused
-0.001356993,1.22700865,-0.018565153,-0.062458175,0.192149064,Subject A,Focused
-0.001420811,0.847440865,-0.114628185,-0.126425079,0.02588356,Subject A,Focused
-0.001485164,0.133135526,-0.186746281,-0.180073781,-0.161325422,Subject A,Focused
-0.001550017,-0.241404658,-0.214812794,-0.201510664,-0.235008527,Subject A,Focused
-0.001615332,-0.031369855,-0.228126993,-0.190572889,-0.174791368,Subject A,Focused
-0.001681073,0.282196178,-0.250965519,-0.153180622,-0.132302473,Subject A,Focused
-0.001747204,0.121215057,-0.269631982,-0.092655119,-0.25297235,Subject A,Focused
-0.00181369,-0.455361046,-0.262664811,-0.020787181,-0.478998743,Subject A,Focused
-0.001880495,-0.860694637,-0.243654934,0.032721356,-0.597650705,Subject A,Focused
-0.001947582,-0.760646187,-0.251915543,0.037338598,-0.484720385,Subject A,Focused
-0.002014915,-0.48138757,-0.300293343,-0.00547712,-0.238631912,Subject A,Focused
-0.002082456,-0.524200483,-0.348419224,-0.05456128,-0.045516544,Subject A,Focused
-0.00215017,-0.863776813,-0.341193684,-0.066125242,0.041479696,Subject A,Focused
-0.002218018,-0.979042078,-0.27246694,-0.039752436,0.131930394,Subject A,Focused
-0.002285964,-0.573399954,-0.198655184,-0.018123274,0.317108978,Subject A,Focused
-0.002353974,-0.012882373,-0.182400683,-0.037288003,0.522804434,Subject A,Focused
-0.002422011,0.122640856,-0.228320673,-0.086568042,0.587140173,Subject A,Focused
-0.00249004,-0.203356085,-0.281659563,-0.125369126,0.464794032,Subject A,Focused
-0.002558029,-0.429115008,-0.287744352,-0.131573702,0.2948782,Subject A,Focused
-0.002625944,-0.136815116,-0.244802987,-0.119970142,0.236678236,Subject A,Focused
-0.002693752,0.380191504,-0.1969744,-0.113898437,0.276279224,Subject A,Focused
-0.002761424,0.485684383,-0.183723496,-0.11293989,0.255320514,Subject A,Focused
-0.002828929,0.033622943,-0.203881721,-0.096959467,0.088304095,Subject A,Focused
-0.00289624,-0.425589563,-0.225306858,-0.056147423,-0.116916858,Subject A,Focused
-0.002963328,-0.340311428,-0.218562368,-0.008032012,-0.195003138,Subject A,Focused
-0.003030168,0.146683238,-0.179255973,0.017219906,-0.135781117,Subject A,Focused
-0.003096735,0.396969311,-0.127996614,0.006220706,-0.097027269,Subject A,Focused
-0.003163005,0.099989608,-0.094683576,-0.024216447,-0.205580338,Subject A,Focused
-0.003228956,-0.347514001,-0.095484393,-0.043570538,-0.404325322,Subject A,Focused
-0.003294564,-0.384023828,-0.11781793,-0.036751542,-0.535406618,Subject A,Focused
-0.003359808,-0.023722938,-0.131623153,-0.014814696,-0.546138273,Subject A,Focused
-0.003424667,0.181009062,-0.120100178,0.002520549,-0.550298702,Subject A,Focused
-0.003489122,-0.098125714,-0.09565995,0.010802332,-0.664386209,Subject A,Focused
-0.003553151,-0.498875219,-0.083250853,0.025060491,-0.831731043,Subject A,Focused
-0.003616738,-0.435962364,-0.094770503,0.061151775,-0.872199462,Subject A,Focused
-0.003679862,0.107434328,-0.123546832,0.113840467,-0.705819136,Subject A,Focused
-0.003742507,0.525153395,-0.154733393,0.155153802,-0.460858233,Subject A,Focused
-0.003804653,0.358038477,-0.172806825,0.159045389,-0.31489872,Subject A,Focused
-0.003866283,-0.129408932,-0.166846045,0.130180917,-0.269037047,Subject A,Focused
-0.00392738,-0.326663264,-0.141835349,0.103705735,-0.154017943,Subject A,Focused
-0.003987926,-0.089643217,-0.122321307,0.109727271,0.133007711,Subject A,Focused
-0.004047902,0.106083305,-0.130113355,0.137303566,0.4682702,Subject A,Focused
-0.004107291,-0.138373361,-0.155491905,0.138871676,0.628477147,Subject A,Focused
-0.004166073,-0.561503319,-0.16535916,0.07531242,0.546130083,Subject A,Focused
-0.004224231,-0.575934003,-0.14773844,-0.042257528,0.375059158,Subject A,Focused
-0.004281747,-0.078692528,-0.132645919,-0.156788259,0.2944728,Subject A,Focused
-0.004338602,0.360231832,-0.152416472,-0.212199194,0.30327272,Subject A,Focused
-0.004394779,0.208084755,-0.192079897,-0.196646942,0.252911221,Subject A,Focused
-0.004450259,-0.344820586,-0.203014429,-0.143250473,0.058725817,Subject A,Focused
-0.004505023,-0.626677013,-0.166324963,-0.096796956,-0.188888395,Subject A,Focused
-0.004559052,-0.341019157,-0.118496341,-0.08476427,-0.348626471,Subject A,Focused
-0.004612328,0.075855051,-0.102042194,-0.111621882,-0.408468444,Subject A,Focused
-0.00466483,0.046440094,-0.109426828,-0.16336224,-0.479766937,Subject A,Focused
-0.004716536,-0.400541642,-0.097931365,-0.21130016,-0.634957895,Subject A,Focused
-0.004767423,-0.697870487,-0.052368693,-0.224704464,-0.828382826,Subject A,Focused
-0.004817469,-0.499007693,-0.007489734,-0.194491906,-0.987712672,Subject A,Focused
-0.004866651,-0.111399223,-0.003695597,-0.142915789,-1.105258387,Subject A,Focused
-0.004914944,-0.054216374,-0.040961768,-0.099672407,-1.191810064,Subject A,Focused
-0.004962323,-0.355147871,-0.086179796,-0.068245861,-1.195610837,Subject A,Focused
-0.005008762,-0.521531261,-0.110093317,-0.025943191,-1.042406328,Subject A,Focused
-0.005054236,-0.212848938,-0.103696812,0.039422947,-0.752324974,Subject A,Focused
-0.005098717,0.284653003,-0.068851881,0.103247972,-0.457943919,Subject A,Focused
-0.005142177,0.418542034,-0.010179206,0.124161668,-0.278197799,Subject A,Focused
-0.005184588,0.096175436,0.062254679,0.08642984,-0.201180752,Subject A,Focused
-0.005225921,-0.190851021,0.132673844,0.014207006,-0.12161977,Subject A,Focused
-0.005266146,-0.01953749,0.188468948,-0.052264756,0.019739487,Subject A,Focused
-0.005305233,0.401699816,0.227789629,-0.082806937,0.17334632,Subject A,Focused
-0.005343152,0.514041958,0.254896865,-0.061943573,0.264152344,Subject A,Focused
-0.005379872,0.155084318,0.267877041,0.011349627,0.295820094,Subject A,Focused
-0.005415361,-0.231290837,0.254860086,0.111408253,0.330397823,Subject A,Focused
-0.00544959,-0.201894971,0.206449237,0.182039026,0.375671501,Subject A,Focused
-0.005482529,0.079465044,0.131009808,0.170608284,0.345922025,Subject A,Focused
-0.005514147,0.06182878,0.053130408,0.08000685,0.17016716,Subject A,Focused
-0.005544415,-0.420868273,-0.003770066,-0.023099431,-0.078841923,Subject A,Focused
-0.005573305,-0.858629443,-0.02949106,-0.066424456,-0.213139381,Subject A,Focused
-0.005600789,-0.680719307,-0.023906145,-0.037491054,-0.11706542,Subject A,Focused
-0.005626841,0.002493097,0.006780718,0.016579802,0.111417691,Subject A,Focused
-0.005651434,0.511359132,0.045070019,0.047594702,0.250519861,Subject A,Focused
-0.005674542,0.434411732,0.064380839,0.048049974,0.201704406,Subject A,Focused
-0.005696143,0.106878247,0.048857421,0.035179699,0.113195124,Subject A,Focused
-0.005716213,0.123575622,0.008977629,0.016635877,0.216306099,Subject A,Focused
-0.005734729,0.551379152,-0.029517262,-0.010100363,0.545782106,Subject A,Focused
-0.005751671,0.875854334,-0.049501903,-0.034026752,0.870537287,Subject A,Focused
-0.005767018,0.720384883,-0.050626733,-0.03040416,0.93297358,Subject A,Focused
-0.00578075,0.362362687,-0.039061974,0.006802978,0.73630855,Subject A,Focused
-0.005792849,0.362498201,-0.017952631,0.045431563,0.549099524,Subject A,Focused
-0.005803298,0.803794905,0.011179356,0.043239786,0.61210065,Subject A,Focused
-0.005812082,1.153939577,0.043901515,-0.005754375,0.879565353,Subject A,Focused
-0.005819184,0.949047626,0.074868456,-0.064476795,1.087684493,Subject A,Focused
-0.005824591,0.408912647,0.1032761,-0.094878563,1.051642172,Subject A,Focused
-0.005828292,0.164576474,0.13190484,-0.09711032,0.832784632,Subject A,Focused
-0.005830276,0.441684966,0.16035409,-0.100348531,0.610040743,Subject A,Focused
-0.005830536,0.773375785,0.183987299,-0.121844747,0.46220069,Subject A,Focused
-0.005829062,0.625475383,0.201969942,-0.146749014,0.334258124,Subject A,Focused
-0.005825851,0.10481519,0.222866534,-0.150248776,0.181985467,Subject A,Focused
