timestamps,TP9,AF7,AF8,TP10,Subject,Emotion
0.000240837,0.046498094,0.001897682,-0.102932602,-0.14719814,Subject A,Focused
2.65e-05,-0.061440237,0.102607123,-0.142838541,0.00362774,Subject A,Focused
-0.00018936,-0.288055462,0.170062108,-0.1872454,0.119776907,Subject A,Focused
-0.000406734,-0.141083711,0.182566623,-0.223476859,0.207793366,Subject A,Focused
-0.000625582,0.330694567,0.170327902,-0.232745532,0.26967697,Subject A,Focused
-0.000845869,0.605538715,0.173901785,-0.199628384,0.277546779,Subject A,Focused
-0.00106756,0.384495683,0.201176753,-0.125182998,0.218260217,Subject A,Focused
-0.001290621,-0.022304217,0.224010158,-0.033346623,0.137880586,Subject A,Focused
-0.001515015,-0.107524083,0.213674381,0.039147063,0.110102931,Subject A,Focused
-0.001740706,0.188014713,0.176350129,0.06598237,0.153855843,Subject A,Focused
-0.001967656,0.429269069,0.149309808,0.051243255,0.201166876,Subject A,Focused
-0.002195826,0.274687799,0.158431944,0.029976303,0.16952866,Subject A,Focused
-0.002425177,-0.074957801,0.184644693,0.045063458,0.065246397,Subject A,Focused
-0.002655667,-0.151158281,0.184372834,0.113697827,-0.013644102,Subject A,Focused
-0.002887257,0.13897471,0.144140016,0.211026435,0.004306044,Subject A,Focused
-0.003119905,0.356772431,0.099473747,0.290618693,0.069394524,Subject A,Focused
-0.003353569,0.104756898,0.091119784,0.325857046,0.07558021,Subject A,Focused
-0.003588207,-0.40658008,0.116630229,0.328544797,0.010883405,Subject A,Focused
-0.003823774,-0.572743228,0.140099557,0.322995254,-0.014298324,Subject A,Focused
-0.004060228,-0.157637547,0.140047449,0.30846951,0.085223277,Subject A,Focused
-0.004297526,0.377126312,0.128387258,0.260688333,0.243195313,Subject A,Focused
-0.004535625,0.431298582,0.123661626,0.17335563,0.321033033,Subject A,Focused
-0.004774481,0.016524951,0.123394023,0.083916259,0.292345218,Subject A,Focused
-0.00501405,-0.272756236,0.108414658,0.043181566,0.274618714,Subject A,Focused
-0.005254286,-0.037567578,0.064325922,0.061430394,0.358114096,Subject A,Focused
-0.005495146,0.422320651,-0.004550425,0.09740377,0.469701176,Subject A,Focused
-0.005736586,0.549731076,-0.072972592,0.104369788,0.46075953,Subject A,Focused
-0.005978559,0.310123709,-0.103745938,0.078296436,0.29574987,Subject A,Focused
-0.006221021,0.231598849,-0.071956696,0.05495525,0.093750624,Subject A,Focused
-0.006463928,0.638430387,0.008022806,0.0655868,-0.008580122,Subject A,Focused
-0.006707234,1.138138265,0.08481856,0.103664598,0.014228542,Subject A,Focused
-0.006950895,1.099240549,0.112450957,0.135674608,0.086908898,Subject A,Focused
-0.007194867,0.506578849,0.093465097,0.138706753,0.130254329,Subject A,Focused
-0.007439104,0.038972423,0.071585554,0.121882006,0.128586568,Subject A,Focused
-0.007683561,0.223241344,0.078167602,0.110566483,0.120072588,Subject A,Focused
-0.007928194,0.744314089,0.095427825,0.11612888,0.142960058,Subject A,Focused
-0.008172959,0.818002509,0.081403677,0.128232726,0.202496803,Subject A,Focused
-0.00841781,0.177194455,0.02519449,0.134205696,0.287500369,Subject A,Focused
-0.008662706,-0.572960839,-0.035054483,0.136094119,0.392833697,Subject A,Focused
-0.008907602,-0.684734123,-0.050962849,0.146069628,0.496094314,Subject A,Focused
-0.009152448,-0.166173515,-0.013196338,0.173385697,0.526211335,Subject A,Focused
-0.009397196,0.266448153,0.041074076,0.220645946,0.409385284,Subject A,Focused
-0.009641801,0.085562788,0.065793891,0.285004006,0.172755512,Subject A,Focused
-0.009886221,-0.449209643,0.046846453,0.353947873,-0.035536079,Subject A,Focused
-0.010130413,-0.704142414,0.00487848,0.403800362,-0.079492862,Subject A,Focused
-0.010374318,-0.495619751,-0.036401174,0.414594093,0.015561585,Subject A,Focused
-0.010617874,-0.246613309,-0.070853448,0.391693097,0.090151047,Subject A,Focused
-0.010861035,-0.338395755,-0.091078606,0.366627342,0.040257838,Subject A,Focused
-0.011103774,-0.586765161,-0.06468428,0.367983347,-0.058315672,Subject A,Focused
-0.011346061,-0.540707187,0.042782474,0.389786222,-0.04667778,Subject A,Focused
-0.011587814,-0.145324698,0.214797699,0.395049712,0.122063808,Subject A,Focused
-0.011828919,0.166560588,0.375969099,0.356813477,0.33186487,Subject A,Focused
-0.012069313,0.072890272,0.455817005,0.292270536,0.446151045,Subject A,Focused
-0.012309046,-0.187094778,0.45325804,0.246939165,0.453909238,Subject A,Focused
-0.012548179,-0.14024056,0.424541405,0.243823566,0.450276929,Subject A,Focused
-0.012786577,0.258677159,0.413881273,0.257542954,0.49959381,Subject A,Focused
-0.0130239,0.541680786,0.41219828,0.244555445,0.554080823,Subject A,Focused
-0.013259963,0.350529788,0.384462222,0.193149977,0.515311292,Subject A,Focused
-0.013495111,-0.069258003,0.321592678,0.135562733,0.359482246,Subject A,Focused
-0.013729902,-0.17880344,0.253508337,0.111531109,0.178399517,Subject A,Focused
-0.013964136,0.146625354,0.214163288,0.12732781,0.082291799,Subject A,Focused
-0.014196503,0.460031062,0.204602458,0.154733908,0.075332223,Subject A,Focused
-0.014426018,0.341153451,0.195971764,0.165550081,0.057596148,Subject A,Focused
-0.014654025,-0.057594449,0.163726206,0.15818614,-0.045246852,Subject A,Focused
-0.014883487,-0.236909439,0.111051137,0.147846572,-0.18661105,Subject A,Focused
-0.015114659,-0.021152946,0.059427179,0.13966072,-0.25632944,Subject A,Focused
-0.015342262,0.224959846,0.024236074,0.123333931,-0.214885667,Subject A,Focused
-0.015560677,0.101762607,0.003909377,0.094588336,-0.138438047,Subject A,Focused
-0.015774124,-0.279561116,-0.010868625,0.069689498,-0.126801531,Subject A,Focused
-0.015997033,-0.431620788,-0.023749444,0.06930991,-0.192344815,Subject A,Focused
-0.016235711,-0.136181871,-0.030877262,0.092086118,-0.259190654,Subject A,Focused
-0.016468346,0.246435886,-0.028674244,0.113567417,-0.259072803,Subject A,Focused
-0.016654471,0.234028095,-0.017823144,0.112504204,-0.198134768,Subject A,Focused
-0.016775928,-0.135177798,0.000100953,0.091904018,-0.12326551,Subject A,Focused
-0.016865432,-0.337449443,0.024379992,0.071194628,-0.052729482,Subject A,Focused
-0.016982805,-0.059801296,0.054480781,0.06113512,0.032526258,Subject A,Focused
-0.017160759,0.364731186,0.095304643,0.050791901,0.143655102,Subject A,Focused
-0.017381134,0.388847154,0.160140068,0.021117907,0.26632766,Subject A,Focused
-0.017603461,-0.009926222,0.252349898,-0.029668594,0.390200225,Subject A,Focused
-0.017805922,-0.283900241,0.340132103,-0.079273799,0.519209916,Subject A,Focused
-0.01799482,-0.044305209,0.369146939,-0.104808035,0.635443128,Subject A,Focused
-0.018184576,0.409121404,0.316997619,-0.109771909,0.68472358,Subject A,Focused
-0.018379401,0.476294099,0.226504332,-0.118679523,0.631795377,Subject A,Focused
-0.018573666,0.048844444,0.169269085,-0.144149453,0.5170254,Subject A,Focused
-0.018762079,-0.350423954,0.178558197,-0.169884991,0.422565516,Subject A,Focused
-0.01894488,-0.265368019,0.227103772,-0.172366326,0.375788316,Subject A,Focused
-0.019125016,0.085309987,0.264063625,-0.150541018,0.31265784,Subject A,Focused
-0.019303812,0.097518027,0.260288227,-0.122910751,0.156955719,Subject A,Focused
-0.019480264,-0.403707625,0.221917341,-0.099796971,-0.072430022,Subject A,Focused
-0.019653039,-0.892625692,0.178439978,-0.074125788,-0.256536132,Subject A,Focused
-0.019821915,-0.787873123,0.163588729,-0.043724226,-0.293725129,Subject A,Focused
-0.019987424,-0.196557572,0.194030419,-0.02760982,-0.214687494,Subject A,Focused
-0.020149886,0.207558885,0.254621837,-0.045986081,-0.156763724,Subject A,Focused
-0.020309089,0.030863602,0.310448257,-0.089449028,-0.214453655,Subject A,Focused
-0.020464667,-0.353094979,0.34451234,-0.123445989,-0.336816822,Subject A,Focused
-0.020616455,-0.30900273,0.379221578,-0.127647761,-0.39350617,Subject A,Focused
-0.020764485,0.215226967,0.44528986,-0.12178522,-0.323983705,Subject A,Focused
-0.020908774,0.607286793,0.528391039,-0.144428952,-0.184838541,Subject A,Focused
-0.021049225,0.386007772,0.567182686,-0.207904981,-0.05186487,Subject A,Focused
-0.021185687,-0.162530623,0.520120339,-0.280369087,0.076740906,Subject A,Focused
-0.021318042,-0.340610361,0.424047649,-0.314547198,0.247684297,Subject A,Focused
-0.021446219,0.075855529,0.366958346,-0.291300582,0.447931058,Subject A,Focused
-0.021570153,0.570014248,0.401154721,-0.23321311,0.578057058,Subject A,Focused
-0.021689752,0.567932223,0.495536864,-0.179037631,0.545692578,Subject A,Focused
-0.021804911,0.170019008,0.574887957,-0.149772843,0.371757251,Subject A,Focused
-0.021915529,-0.017761098,0.592841768,-0.13935689,0.186456201,Subject A,Focused
-0.022021517,0.292881714,0.560138357,-0.13269902,0.110814282,Subject A,Focused
-0.02212279,0.698284428,0.514879258,-0.126668441,0.144654301,Subject A,Focused
-0.022219259,0.670315188,0.482626889,-0.130454584,0.182210019,Subject A,Focused
-0.022310831,0.290802769,0.465796832,-0.147021916,0.138106862,Subject A,Focused
-0.022397415,0.152755499,0.456588143,-0.161116376,0.038552692,Subject A,Focused
-0.022478924,0.554788392,0.448216118,-0.152992328,-0.025209957,Subject A,Focused
-0.022555273,1.074408446,0.435047935,-0.123419737,-0.016972581,Subject A,Focused
-0.022626379,1.101742007,0.410517375,-0.096161332,0.000571317,Subject A,Focused
-0.022692158,0.632008384,0.371534484,-0.089999041,-0.050480267,Subject A,Focused
-0.022752529,0.273015274,0.325348481,-0.094525409,-0.158278691,Subject A,Focused
-0.02280741,0.461750423,0.286310277,-0.083861417,-0.22798816,Subject A,Focused
-0.022856728,0.913481576,0.259570836,-0.053718305,-0.19642783,Subject A,Focused
-0.022900408,1.007387991,0.229314097,-0.033149804,-0.113991965,Subject A,Focused
-0.022938379,0.58985017,0.171042647,-0.05303135,-0.090632371,Subject A,Focused
-0.022970573,0.15015635,0.079412783,-0.110226972,-0.176839337,Subject A,Focused
-0.022996925,0.159439793,-0.020670411,-0.171031454,-0.331804826,Subject A,Focused
-0.023017372,0.456288669,-0.095570575,-0.204722413,-0.499258714,Subject A,Focused
-0.023031857,0.485641137,-0.133384482,-0.204006935,-0.657286855,Subject A,Focused
-0.023040321,0.061708578,-0.148030749,-0.176510838,-0.772074104,Subject A,Focused
-0.023042709,-0.366970729,-0.155193157,-0.13110215,-0.765264729,Subject A,Focused
-0.023038968,-0.306530887,-0.154618592,-0.07811531,-0.593797602,Subject A,Focused
-0.023029048,0.121455135,-0.141910142,-0.032899922,-0.340825273,Subject A,Focused
-0.0230129,0.329820306,-0.127892286,-0.008602621,-0.161262963,Subject A,Focused
-0.022990477,0.035670094,-0.131882199,-0.006023472,-0.129415487,Subject A,Focused
-0.022961733,-0.369277622,-0.156986092,-0.015569863,-0.186849897,Subject A,Focused
-0.022926627,-0.348331126,-0.185710931,-0.028786265,-0.248591231,Subject A,Focused
-0.022885117,0.048350147,-0.20375089,-0.044150132,-0.306179289,Subject A,Focused
-0.022837166,0.235746828,-0.216756536,-0.061348304,-0.389419819,Subject A,Focused
-0.022782738,-0.118781405,-0.236030203,-0.073642496,-0.465449636,Subject A,Focused
-0.0227218,-0.617873405,-0.255026084,-0.068985645,-0.439929109,Subject A,Focused
-0.02265432,-0.619275619,-0.250856625,-0.039376553,-0.266582408,Subject A,Focused
-0.022580271,-0.059570639,-0.210535484,0.010478268,-0.012548115,Subject A,Focused
-0.022499625,0.461650491,-0.150150033,0.06296509,0.206178009,Subject A,Focused
-0.022412361,0.440531654,-0.103261544,0.097521367,0.328416945,Subject A,Focused
-0.022318457,0.077070609,-0.089060514,0.105350718,0.368488494,Subject A,Focused
-0.022217896,-0.038740049,-0.094581377,0.09661556,0.359510484,Subject A,Focused
-0.022110664,0.279428821,-0.093061401,0.090379555,0.311306236,Subject A,Focused
-0.021996748,0.584825824,-0.079527328,0.095878825,0.227391223,Subject A,Focused
-0.021876137,0.408847093,-0.07978386,0.107067611,0.142595578,Subject A,Focused
-0.021748824,-0.115525324,-0.11823772,0.115677074,0.121625703,Subject A,Focused
-0.021614802,-0.441316236,-0.183436948,0.121424491,0.201833967,Subject A,Focused
-0.021474069,-0.336669469,-0.236161169,0.124795843,0.333910192,Subject A,Focused
-0.021326622,-0.165167881,-0.251890981,0.118774918,0.404996307,Subject A,Focused
-0.021172465,-0.343257137,-0.247532932,0.097819005,0.351172737,Subject A,Focused
-0.021011601,-0.724579338,-0.262985905,0.070356992,0.239725711,Subject A,Focused
-0.020844038,-0.770394917,-0.319416587,0.05135324,0.202654808,Subject A,Focused
-0.020669787,-0.299865189,-0.397393072,0.04387087,0.276001947,Subject A,Focused
-0.020488858,0.194990161,-0.453602674,0.038694114,0.337218011,Subject A,Focused
-0.020301265,0.132620466,-0.456475686,0.03271727,0.233839395,Subject A,Focused
-0.020107025,-0.412603938,-0.407497843,0.035840461,-0.036589628,Subject A,Focused
-0.019906156,-0.785620696,-0.335397125,0.054252782,-0.30811494,Subject A,Focused
-0.019698679,-0.570763981,-0.276491199,0.075831492,-0.415407244,Subject A,Focused
-0.019484616,-0.102064828,-0.257292053,0.080234615,-0.357757227,Subject A,Focused
-0.019263996,-0.007052948,-0.283714088,0.059843663,-0.274939961,Subject A,Focused
-0.019036845,-0.386843891,-0.339275947,0.025596463,-0.269811742,Subject A,Focused
-0.018803195,-0.702477353,-0.397085678,-0.004425675,-0.286090272,Subject A,Focused
-0.01856308,-0.500281926,-0.438814149,-0.017872101,-0.184478758,Subject A,Focused
-0.018316536,-0.005918519,-0.461876913,-0.014011903,0.071819265,Subject A,Focused
-0.018063602,0.194336592,-0.468460843,-0.004010416,0.345151912,Subject A,Focused
-0.017804318,-0.059030424,-0.453534852,-0.005413784,0.458265192,Subject A,Focused
-0.017538729,-0.30810077,-0.409873368,-0.030692093,0.379881778,Subject A,Focused
-0.017266881,-0.130959965,-0.34519455,-0.077240878,0.242511511,Subject A,Focused
-0.016988821,0.263724114,-0.289084982,-0.127882352,0.184387595,Subject A,Focused
-0.016704601,0.323305385,-0.274206911,-0.161175014,0.221277727,Subject A,Focused
-0.016414275,-0.066243313,-0.302533077,-0.163589699,0.290643134,Subject A,Focused
-0.0161179,-0.380388244,-0.332469203,-0.138396681,0.366724864,Subject A,Focused
-0.015815533,-0.142409036,-0.31416187,-0.107708884,0.466033788,Subject A,Focused
-0.015507234,0.410622445,-0.247124587,-0.100927124,0.552037203,Subject A,Focused
-0.015193067,0.595727286,-0.191990704,-0.130439118,0.516557362,Subject A,Focused
-0.014873097,0.165885085,-0.208056861,-0.175125589,0.304773417,Subject A,Focused
-0.014547394,-0.349823987,-0.280715971,-0.195070025,0.019075603,Subject A,Focused
-0.014216028,-0.313010308,-0.328313426,-0.170444995,-0.167375679,Subject A,Focused
-0.013879074,0.202684239,-0.288882881,-0.125389077,-0.207097207,Subject A,Focused
-0.013536607,0.499761964,-0.18803742,-0.107655969,-0.240407035,Subject A,Focused
-0.013188708,0.148347028,-0.107381351,-0.142016008,-0.431133069,Subject A,Focused
-0.012835458,-0.459052786,-0.091137571,-0.205709889,-0.762650163,Subject A,Focused
-0.012476939,-0.600554411,-0.10159908,-0.250189398,-1.03331938,Subject A,Focused
-0.012113238,-0.137627121,-0.071680378,-0.24312454,-1.055048513,Subject A,Focused
-0.011744443,0.317599618,0.013401547,-0.187971645,-0.829244459,Subject A,Focused
-0.011370643,0.187871508,0.100428652,-0.110533123,-0.518543678,Subject A,Focused
-0.010991929,-0.346686541,0.129421559,-0.037358397,-0.273315849,Subject A,Focused
-0.010608394,-0.607261593,0.097170962,0.011971582,-0.11419081,Subject A,Focused
-0.010220132,-0.290803216,0.054986892,0.023019816,0.027492233,Subject A,Focused
-0.009827241,0.182995726,0.049708071,-0.010542401,0.198815178,Subject A,Focused
-0.00942982,0.265639483,0.074671391,-0.078850436,0.381407464,Subject A,Focused
-0.009027974,-0.009099359,0.080740421,-0.154797243,0.532730125,Subject A,Focused
-0.008621806,-0.132053175,0.032207901,-0.206398063,0.622912399,Subject A,Focused
-0.008211427,0.141040386,-0.052901921,-0.214912269,0.621528053,Subject A,Focused
-0.007796947,0.438526828,-0.119964526,-0.185559148,0.495713529,Subject A,Focused
-0.007378478,0.288689955,-0.132192821,-0.143126861,0.268629243,Subject A,Focused
-0.006956135,-0.199988633,-0.103200621,-0.114339705,0.063542233,Subject A,Focused
-0.006530032,-0.42893326,-0.07554191,-0.109287417,0.027479218,Subject A,Focused
-0.006100285,-0.078360218,-0.074386373,-0.118720655,0.176792658,Subject A,Focused
-0.005667013,0.454214049,-0.088874297,-0.129985417,0.345221555,Subject A,Focused
-0.005230337,0.539263648,-0.095023572,-0.141477581,0.32998817,Subject A,Focused
-0.004790377,0.108880207,-0.085943625,-0.157250931,0.097655809,Subject A,Focused
-0.004347257,-0.2695788,-0.075323231,-0.172746529,-0.182354293,Subject A,Focused
-0.003901101,-0.135547876,-0.078075867,-0.175951455,-0.325311738,Subject A,Focused
-0.003452035,0.275220769,-0.093995057,-0.163527605,-0.330397165,Subject A,Focused
-0.003000183,0.359089466,-0.108179289,-0.146383239,-0.359792585,Subject A,Focused
-0.002545675,-0.053591178,-0.104299149,-0.132836103,-0.520007311,Subject A,Focused
-0.002088641,-0.485365364,-0.080847394,-0.111725167,-0.706068684,Subject A,Focused
-0.001629212,-0.455737091,-0.056904636,-0.063350929,-0.704955273,Subject A,Focused
-0.001167523,-0.112292975,-0.057069202,0.010174546,-0.450587735,Subject A,Focused
-0.000703707,-0.013359662,-0.087656963,0.075568324,-0.130299521,Subject A,Focused
-0.0002379,-0.369460219,-0.132679523,0.098338964,-0.001299427,Subject A,Focused
0.00022976,-0.766069952,-0.174596967,0.077148936,-0.119410836,Subject A,Focused
0.000699137,-0.73191908,-0.209681185,0.039295922,-0.300021327,Subject A,Focused
0.001170089,-0.376056586,-0.236506481,0.007048219,-0.35323789,Subject A,Focused
0.001642475,-0.227859923,-0.23793534,-0.018391291,-0.294570562,Subject A,Focused
0.002116154,-0.501234181,-0.190013306,-0.041198714,-0.277529088,Subject A,Focused
0.002590981,-0.794478174,-0.095303155,-0.056705542,-0.368533985,Subject A,Focused
0.003066812,-0.644850024,0.001343731,-0.060938048,-0.472741434,Subject A,Focused
0.003543502,-0.181903151,0.046117954,-0.062380862,-0.479902268,Subject A,Focused
0.004020905,0.024071748,0.030882465,-0.071488821,-0.400366825,Subject A,Focused
0.004498875,-0.268644272,0.003789374,-0.082314073,-0.315502267,Subject A,Focused
0.004977264,-0.62318573,0.016786575,-0.075729508,-0.248362693,Subject A,Focused
0.005455926,-0.484309595,0.071463477,-0.042341286,-0.149653121,Subject A,Focused
0.005934713,0.078097735,0.127237818,0.005084986,0.000221735,Subject A,Focused
0.006413479,0.432327491,0.152681964,0.045238077,0.135920145,Subject A,Focused
0.006892073,0.190480906,0.150067809,0.070020203,0.174153375,Subject A,Focused
0.007370348,-0.293161487,0.132144135,0.088797228,0.103079145,Subject A,Focused
0.007848155,-0.386834351,0.098086065,0.113251052,-0.017359444,Subject A,Focused
0.008325346,-0.001845995,0.044940282,0.144063835,-0.124803656,Subject A,Focused
0.008801772,0.305004169,-0.010273888,0.175208905,-0.199135271,Subject A,Focused
0.009277285,0.076600887,-0.038367619,0.206091027,-0.241699584,Subject A,Focused
0.009751737,-0.43105761,-0.029384166,0.240929371,-0.233713803,Subject A,Focused
0.010224979,-0.568000009,-0.006242115,0.274845725,-0.136513025,Subject A,Focused
0.010696864,-0.126392172,-0.00362533,0.289607323,0.057814479,Subject A,Focused
0.011167243,0.38594799,-0.038092423,0.272394039,0.282115502,Subject A,Focused
0.011635969,0.383084818,-0.098866686,0.236725243,0.421205934,Subject A,Focused
0.012102895,-0.06835365,-0.158770188,0.214354696,0.405907819,Subject A,Focused
0.012567875,-0.354414581,-0.188812893,0.221806625,0.283338354,Subject A,Focused
0.013030762,-0.10973014,-0.171007505,0.241293661,0.174922489,Subject A,Focused
0.013491411,0.326750719,-0.109858087,0.240835566,0.154318742,Subject A,Focused
0.013949678,0.381851825,-0.031330569,0.209386378,0.184438199,Subject A,Focused
0.014405419,0.013978073,0.038100939,0.164965928,0.186237231,Subject A,Focused
0.014858491,-0.248700616,0.090688575,0.129444662,0.139867809,Subject A,Focused
0.015308753,-0.043200792,0.128273588,0.104212689,0.086323997,Subject A,Focused
0.015756063,0.327314119,0.139313608,0.075937318,0.051578562,Subject A,Focused
0.016200281,0.317851224,0.102362967,0.041726527,0.016712003,Subject A,Focused
0.016641266,-0.090052041,0.019019649,0.020104572,-0.03226371,Subject A,Focused
0.01707888,-0.339055207,-0.068761533,0.033860881,-0.062233361,Subject A,Focused
0.017512982,-0.048572754,-0.108936343,0.084899775,-0.025520957,Subject A,Focused
0.017943433,0.450729693,-0.089584389,0.148763907,0.074932926,Subject A,Focused
0.018370094,0.539791752,-0.05168771,0.193351882,0.176931039,Subject A,Focused
0.018792825,0.14151228,-0.046395039,0.202071665,0.225815383,Subject A,Focused
0.019211486,-0.156083143,-0.082765789,0.180814344,0.232725569,Subject A,Focused
0.01962594,0.1289332,-0.122891086,0.147189355,0.244510428,Subject A,Focused
0.020036048,0.716619057,-0.125074917,0.116856134,0.268393935,Subject A,Focused
