timestamps,TP9,AF7,AF8,TP10,Subject,Emotion
-0.096411122,-5.218213595,-0.119190286,0.2186078,-5.950256063,Subject B,Focused
-0.099097217,-5.720287263,-0.0957694,0.247314801,-6.175021044,Subject B,Focused
-0.101793066,-5.801315214,-0.092787857,0.271438627,-6.334992596,Subject B,Focused
-0.104498338,-5.542419036,-0.095839518,0.268864556,-6.339763158,Subject B,Focused
-0.107212697,-5.484320758,-0.136296303,0.230634015,-6.209737331,Subject B,Focused
-0.109935801,-5.80924597,-0.250960167,0.170653656,-6.009217207,Subject B,Focused
-0.112667303,-6.00950071,-0.41841005,0.112712018,-5.757152279,Subject B,Focused
-0.11540685,-5.546365534,-0.557797466,0.064263914,-5.452056137,Subject B,Focused
-0.118154084,-4.625100412,-0.598590023,0.007246754,-5.149899703,Subject B,Focused
-0.12090864,-4.009798888,-0.540840767,-0.075800943,-4.945047384,Subject B,Focused
-0.123670143,-4.085407392,-0.440657449,-0.167040941,-4.853661376,Subject B,Focused
-0.126438214,-4.398448658,-0.350842464,-0.219815649,-4.766915124,Subject B,Focused
-0.129212471,-4.273039871,-0.291339142,-0.210104143,-4.57067964,Subject B,Focused
-0.131992528,-3.676898107,-0.267097378,-0.172305212,-4.290728955,Subject B,Focused
-0.134777991,-3.212303194,-0.286899176,-0.170123236,-4.056615368,Subject B,Focused
-0.137568447,-3.27896641,-0.351788198,-0.233800433,-3.914658512,Subject B,Focused
-0.140363474,-3.52020035,-0.434285934,-0.336045429,-3.746655326,Subject B,Focused
-0.143162655,-3.269377385,-0.481269943,-0.427793361,-3.425501908,Subject B,Focused
-0.145965593,-2.416315785,-0.444950471,-0.484828628,-3.008605169,Subject B,Focused
-0.148771877,-1.572587545,-0.319588109,-0.514984239,-2.695816684,Subject B,Focused
-0.151581046,-1.309367286,-0.151173217,-0.531677487,-2.584481409,Subject B,Focused
-0.154392596,-1.438114777,-0.002025642,-0.536126877,-2.530125609,Subject B,Focused
-0.157206074,-1.264297241,0.101383923,-0.528745882,-2.292304538,Subject B,Focused
-0.160021132,-0.49501888,0.179347382,-0.525800459,-1.791427903,Subject B,Focused
-0.16283743,0.369068865,0.255379886,-0.549097457,-1.181401668,Subject B,Focused
-0.165654429,0.664377227,0.315752379,-0.594637602,-0.672804069,Subject B,Focused
-0.168471372,0.401698339,0.32231687,-0.621638578,-0.319054934,Subject B,Focused
-0.171287661,0.234400191,0.256863988,-0.587233384,0.002906579,Subject B,Focused
-0.174103215,0.620667732,0.146128126,-0.496698009,0.418900699,Subject B,Focused
-0.176918166,1.279601132,0.050720513,-0.409945192,0.90302202,Subject B,Focused
-0.179731878,1.619158984,0.029502418,-0.387443841,1.312347147,Subject B,Focused
-0.182542606,1.523418084,0.097311305,-0.431160125,1.555611204,Subject B,Focused
-0.185348924,1.4489763,0.206819956,-0.486586921,1.694829702,Subject B,Focused
-0.18815173,1.741777021,0.280939598,-0.500315259,1.861124299,Subject B,Focused
-0.190953537,2.133887177,0.275186421,-0.464874032,2.086367772,Subject B,Focused
-0.193754148,2.118872376,0.212161996,-0.407773625,2.266743505,Subject B,Focused
-0.196547829,1.693674299,0.156789354,-0.35312471,2.315554839,Subject B,Focused
-0.199328505,1.430659114,0.158429003,-0.306618953,2.299306601,Subject B,Focused
-0.202099934,1.740404562,0.210369604,-0.270785097,2.35498981,Subject B,Focused
-0.204876086,2.310289868,0.2570244,-0.256374222,2.494681683,Subject B,Focused
-0.207662805,2.505895664,0.24251243,-0.26988813,2.582199102,Subject B,Focused
-0.210437814,2.226133356,0.162456743,-0.297423933,2.529498799,Subject B,Focused
-0.213160179,2.058922303,0.07155783,-0.310977691,2.438536336,Subject B,Focused
-0.215811271,2.496363172,0.033875167,-0.291527233,2.485268001,Subject B,Focused
-0.218423333,3.236854728,0.062614925,-0.243209355,2.70438703,Subject B,Focused
-0.221055709,3.51977607,0.112713305,-0.187093891,2.958606963,Subject B,Focused
-0.22374063,3.086783767,0.131677466,-0.143943147,3.107808439,Subject B,Focused
-0.226459453,2.520549244,0.109708044,-0.120640108,3.141671238,Subject B,Focused
-0.22917122,2.505416284,0.07771362,-0.109855979,3.13454604,Subject B,Focused
-0.231853621,2.963285524,0.065185442,-0.101777288,3.130613353,Subject B,Focused
-0.234512462,3.191286293,0.070379181,-0.093822019,3.117399424,Subject B,Focused
-0.237161661,2.816425862,0.07255692,-0.086568941,3.086343079,Subject B,Focused
-0.239804923,2.301787863,0.064131676,-0.075591208,3.069479001,Subject B,Focused
-0.242436107,2.330925966,0.061478188,-0.057578033,3.102971787,Subject B,Focused
-0.245049406,2.892204062,0.084689696,-0.044416644,3.1748854,Subject B,Focused
-0.247644541,3.288569124,0.133263699,-0.057477022,3.228231594,Subject B,Focused
-0.250223933,3.061501818,0.183223185,-0.099053709,3.220927615,Subject B,Focused
-0.252788382,2.594603739,0.205278002,-0.138927794,3.17624784,Subject B,Focused
-0.255336352,2.591423071,0.18762403,-0.142525191,3.155257928,Subject B,Focused
-0.257865977,3.124073779,0.145188443,-0.108146516,3.16578464,Subject B,Focused
-0.260376497,3.516097429,0.104013167,-0.061700168,3.120966253,Subject B,Focused
-0.262867902,3.214178884,0.072648228,-0.016441417,2.932785026,Subject B,Focused
-0.265339968,2.504862333,0.035809472,0.040860385,2.650917267,Subject B,Focused
-0.267791932,2.147130215,-0.014989214,0.113769541,2.453559604,Subject B,Focused
-0.270222874,2.409023966,-0.054243805,0.166487604,2.459355272,Subject B,Focused
-0.272632071,2.756412741,-0.046458243,0.156608242,2.581636842,Subject B,Focused
-0.275018994,2.576853201,0.001048544,0.096090236,2.621800602,Subject B,Focused
-0.277383097,1.978262098,0.031020161,0.054781991,2.494151924,Subject B,Focused
-0.279723717,1.625648961,-0.003127569,0.089109148,2.30450733,Subject B,Focused
-0.282040134,1.848612559,-0.07992894,0.178266878,2.201500883,Subject B,Focused
-0.284331658,2.198485346,-0.130314235,0.24619619,2.200268877,Subject B,Focused
-0.286597645,2.032178379,-0.115590391,0.243840037,2.182866176,Subject B,Focused
-0.288837452,1.358064313,-0.073204121,0.196158913,2.051235411,Subject B,Focused
-0.291050409,0.848733242,-0.08117869,0.165726603,1.844778988,Subject B,Focused
-0.293235831,1.008105908,-0.18148397,0.182974626,1.691678577,Subject B,Focused
-0.295393032,1.556026079,-0.334851935,0.222544269,1.655953591,Subject B,Focused
-0.297521337,1.797465817,-0.443778464,0.241465276,1.66685666,Subject B,Focused
-0.29962007,1.485411856,-0.429522265,0.224747723,1.619651381,Subject B,Focused
-0.30168855,1.077543065,-0.30540563,0.188871395,1.511877813,Subject B,Focused
-0.303726087,1.090656205,-0.173955109,0.154380431,1.428163334,Subject B,Focused
-0.305731993,1.425065714,-0.135396196,0.131159689,1.403079732,Subject B,Focused
-0.307705575,1.542597685,-0.195653464,0.128033864,1.368791853,Subject B,Focused
-0.309646143,1.231648386,-0.273831197,0.157026213,1.26787319,Subject B,Focused
-0.311553001,0.916609183,-0.295495784,0.214602217,1.16752766,Subject B,Focused
-0.313425451,1.09285585,-0.260342459,0.267246005,1.198681634,Subject B,Focused
-0.315262793,1.641104399,-0.216600303,0.275035414,1.375913222,Subject B,Focused
-0.317064324,1.935735675,-0.192825966,0.236886814,1.525852681,Subject B,Focused
-0.31882934,1.61630653,-0.175307272,0.200932943,1.441911092,Subject B,Focused
-0.320557135,1.025023127,-0.144765233,0.21604538,1.111858084,Subject B,Focused
-0.322246999,0.751876999,-0.11244705,0.274485444,0.756631382,Subject B,Focused
-0.32389822,0.891193448,-0.111317987,0.31517993,0.624203181,Subject B,Focused
-0.325510087,0.979833985,-0.160260324,0.289068398,0.765885899,Subject B,Focused
-0.327081885,0.677513679,-0.242599383,0.214079023,1.030936469,Subject B,Focused
-0.3286129,0.260795949,-0.316085937,0.157895778,1.242706482,Subject B,Focused
-0.330102413,0.255250772,-0.342790069,0.166769928,1.328118048,Subject B,Focused
-0.331549709,0.701726792,-0.313771721,0.216867324,1.293586648,Subject B,Focused
-0.332954067,1.064087762,-0.248494447,0.24117291,1.162201146,Subject B,Focused
-0.33431477,0.924876532,-0.175107133,0.20478175,0.986834693,Subject B,Focused
-0.335631099,0.537911919,-0.1168748,0.146087214,0.87347511,Subject B,Focused
-0.336902333,0.48479238,-0.092222552,0.134357086,0.903093212,Subject B,Focused
-0.338127754,0.889467392,-0.110830037,0.188954994,1.018014683,Subject B,Focused
-0.339306643,1.249897555,-0.161191417,0.255348119,1.052143729,Subject B,Focused
-0.340438281,1.119578185,-0.211803282,0.268720651,0.912587133,Subject B,Focused
-0.341521948,0.720276353,-0.23565302,0.22748026,0.690724738,Subject B,Focused
-0.342556924,0.651629557,-0.231686776,0.185387682,0.552538736,Subject B,Focused
-0.34354249,1.081223842,-0.217533079,0.176326819,0.550557771,Subject B,Focused
-0.344477925,1.504165393,-0.20649893,0.173064057,0.593760013,Subject B,Focused
-0.34536251,1.398044713,-0.19897113,0.133460207,0.587002857,Subject B,Focused
-0.346195525,0.903106424,-0.190887651,0.068742846,0.542709137,Subject B,Focused
-0.346976251,0.632268558,-0.177943962,0.039047679,0.539480402,Subject B,Focused
-0.347703971,0.871627164,-0.150557719,0.080796076,0.610155013,Subject B,Focused
-0.348377967,1.223042798,-0.097183252,0.162386879,0.706761124,Subject B,Focused
-0.348997521,1.144230878,-0.019733366,0.223901817,0.768054757,Subject B,Focused
-0.349561914,0.664293115,0.060025384,0.243215971,0.787209485,Subject B,Focused
-0.350070432,0.332095119,0.1136837,0.243101415,0.794005655,Subject B,Focused
-0.350522355,0.469964193,0.122358667,0.241896616,0.788054931,Subject B,Focused
-0.350916969,0.7285729,0.083086195,0.223645149,0.726020543,Subject B,Focused
-0.351253556,0.551475011,0.013095138,0.166607289,0.592340351,Subject B,Focused
-0.351531401,-0.053056534,-0.048504488,0.085261572,0.461942401,Subject B,Focused
-0.351749789,-0.471505559,-0.059506568,0.025219043,0.451981981,Subject B,Focused
-0.351908006,-0.265176039,-0.010279486,0.014793159,0.590440429,Subject B,Focused
-0.352005341,0.242191292,0.062327182,0.033969557,0.754030123,Subject B,Focused
-0.352041083,0.361261048,0.106226703,0.040931395,0.773518862,Subject B,Focused
-0.352014521,-0.076986954,0.099728778,0.023492431,0.605597705,Subject B,Focused
-0.351924948,-0.504807572,0.061876233,0.009769661,0.373288078,Subject B,Focused
-0.351771657,-0.366832291,0.020848292,0.025967138,0.229178234,Subject B,Focused
-0.351553945,0.143176278,-0.015746133,0.060139833,0.211123808,Subject B,Focused
-0.351271107,0.330350577,-0.051802079,0.080721,0.250355488,Subject B,Focused
-0.350922442,-0.092376742,-0.07472693,0.080846843,0.280604617,Subject B,Focused
-0.35050725,-0.629748524,-0.056541436,0.084245733,0.286830682,Subject B,Focused
-0.350024835,-0.651512394,0.011198451,0.105316916,0.257418544,Subject B,Focused
-0.349474498,-0.208140884,0.095523656,0.12280071,0.152569589,Subject B,Focused
-0.348855544,0.047064951,0.144424545,0.10678364,-0.040999033,Subject B,Focused
-0.348167282,-0.285778518,0.129492487,0.06147724,-0.248225457,Subject B,Focused
-0.347409017,-0.84260659,0.066921398,0.023149424,-0.346317883,Subject B,Focused
-0.346580059,-0.985068357,0.003393511,0.015330399,-0.284680983,Subject B,Focused
-0.345679718,-0.629148173,-0.017990688,0.021489842,-0.143392574,Subject B,Focused
-0.344707306,-0.322197053,0.011752341,0.010280269,-0.048775305,Subject B,Focused
-0.343662136,-0.48838314,0.061721195,-0.021823179,-0.03853194,Subject B,Focused
-0.342543523,-0.862456548,0.087712465,-0.047144802,-0.037861062,Subject B,Focused
-0.341350784,-0.864986379,0.07073363,-0.045883417,0.025366105,Subject B,Focused
-0.340083235,-0.407672597,0.029900592,-0.033070969,0.111269356,Subject B,Focused
-0.338740195,-0.042624607,-0.005107561,-0.03421823,0.10530985,Subject B,Focused
-0.337320987,-0.245601087,-0.031688396,-0.042703467,-0.036554811,Subject B,Focused
-0.335824934,-0.78288681,-0.076515831,-0.023355485,-0.215148502,Subject B,Focused
-0.334251361,-1.010540396,-0.155643003,0.035030167,-0.291975509,Subject B,Focused
-0.332599598,-0.720565525,-0.239997453,0.090688205,-0.255570463,Subject B,Focused
-0.330868977,-0.415047533,-0.275434965,0.091499751,-0.243703559,Subject B,Focused
-0.329058833,-0.634202667,-0.24132892,0.038674733,-0.380241975,Subject B,Focused
-0.327168508,-1.214351713,-0.177712896,-0.012034213,-0.614890489,Subject B,Focused
-0.325197345,-1.460480478,-0.145390361,-0.013965666,-0.76343797,Subject B,Focused
-0.323144695,-1.028329593,-0.16507316,0.021538377,-0.711683242,Subject B,Focused
-0.321009912,-0.374168282,-0.203702267,0.046636944,-0.540470818,Subject B,Focused
-0.318792358,-0.183920234,-0.216076871,0.035412055,-0.41643527,Subject B,Focused
-0.316491398,-0.52268949,-0.188504026,0.007591637,-0.389097667,Subject B,Focused
-0.314106405,-0.803937939,-0.138883369,-0.001905118,-0.357434489,Subject B,Focused
-0.311636755,-0.59209226,-0.086370211,0.01901776,-0.237378149,Subject B,Focused
-0.309081832,-0.161297555,-0.036703438,0.057131488,-0.090478305,Subject B,Focused
-0.306441024,-0.079413565,0.003314619,0.095262977,-0.042609568,Subject B,Focused
-0.303713728,-0.400509874,0.01520377,0.122140291,-0.118978835,Subject B,Focused
-0.300899345,-0.573387146,-0.014168493,0.125499813,-0.223649355,Subject B,Focused
-0.297997284,-0.203542904,-0.071130141,0.092126594,-0.279591797,Subject B,Focused
-0.295006958,0.361048501,-0.122629945,0.024806473,-0.330098384,Subject B,Focused
-0.291927789,0.436922116,-0.146004731,-0.045776421,-0.462632683,Subject B,Focused
-0.288759206,-0.10588976,-0.146187021,-0.079264575,-0.656067936,Subject B,Focused
-0.285500644,-0.647702826,-0.144299853,-0.063912579,-0.761566636,Subject B,Focused
-0.282151544,-0.588696768,-0.153857109,-0.032438645,-0.665914348,Subject B,Focused
-0.278711355,-0.087902239,-0.167933038,-0.029549133,-0.448877285,Subject B,Focused
-0.275179532,0.175633118,-0.167155714,-0.061642433,-0.330737811,Subject B,Focused
-0.271555534,-0.116644245,-0.141753501,-0.087982843,-0.446794115,Subject B,Focused
-0.26783883,-0.552004002,-0.107479728,-0.068061799,-0.699817862,Subject B,Focused
-0.264028892,-0.577564836,-0.095723579,-0.00991644,-0.864968694,Subject B,Focused
-0.2601252,-0.240295583,-0.12147174,0.03921982,-0.832390897,Subject B,Focused
-0.256127239,-0.091225398,-0.160133917,0.04654783,-0.711972598,Subject B,Focused
-0.2520345,-0.398704168,-0.162769569,0.025306335,-0.687489425,Subject B,Focused
-0.24784648,-0.744071244,-0.103431008,0.011223984,-0.797900016,Subject B,Focused
-0.243562681,-0.562382136,-0.013914365,0.019247479,-0.898687528,Subject B,Focused
-0.239182612,0.083858249,0.037850223,0.032115146,-0.838786737,Subject B,Focused
-0.234705789,0.540595465,0.016155557,0.027869819,-0.638362263,Subject B,Focused
-0.230131731,0.383920651,-0.037716038,0.008826654,-0.459027953,Subject B,Focused
-0.225459965,-0.04294094,-0.045714258,-0.004272955,-0.415029146,Subject B,Focused
-0.220690023,-0.086438935,0.014001405,-0.006268907,-0.465470289,Subject B,Focused
-0.215821444,0.353854773,0.07152852,-0.023498074,-0.501310237,Subject B,Focused
-0.210853772,0.683936118,0.044668825,-0.081930558,-0.473795573,Subject B,Focused
-0.205786558,0.398429355,-0.054009764,-0.162731429,-0.391006653,Subject B,Focused
-0.200619361,-0.226303086,-0.121605578,-0.208254578,-0.245277786,Subject B,Focused
-0.195351747,-0.45928468,-0.086424839,-0.180946022,-0.033297134,Subject B,Focused
-0.189983289,-0.063213913,0.003130801,-0.104623428,0.162736774,Subject B,Focused
-0.184513569,0.385153267,0.034292113,-0.03699931,0.210783034,Subject B,Focused
-0.178942176,0.248976981,-0.042412209,-0.010151704,0.087363296,Subject B,Focused
-0.173268706,-0.326081277,-0.168677723,-0.011269206,-0.063601853,Subject B,Focused
-0.167492763,-0.600225675,-0.2546028,-0.016635972,-0.088325086,Subject B,Focused
-0.161613961,-0.210213905,-0.267851854,-0.024561364,-0.002678356,Subject B,Focused
-0.15563192,0.359899015,-0.237673179,-0.045035137,0.044815429,Subject B,Focused
-0.14954627,0.412205934,-0.197346525,-0.069938236,-0.030428825,Subject B,Focused
-0.143356649,-0.079648441,-0.15119591,-0.073699652,-0.152364468,Subject B,Focused
-0.137062703,-0.482957864,-0.095189229,-0.046113332,-0.191983353,Subject B,Focused
-0.130664086,-0.356435537,-0.044176407,-0.008559512,-0.120385444,Subject B,Focused
-0.124160462,0.00513822,-0.023439414,0.012159042,-0.020452147,Subject B,Focused
-0.117551503,0.02703453,-0.040678385,0.015675705,0.030705308,Subject B,Focused
-0.110836889,-0.337555376,-0.0784976,0.020651712,0.046680909,Subject B,Focused
-0.10401631,-0.54830478,-0.114760692,0.030535637,0.089243924,Subject B,Focused
-0.097089463,-0.244143358,-0.14281675,0.023730253,0.170893255,Subject B,Focused
-0.090056052,0.214637273,-0.16864901,-0.013665962,0.229676631,Subject B,Focused
-0.082915791,0.192855483,-0.193590422,-0.052918251,0.201929109,Subject B,Focused
-0.075668402,-0.357280409,-0.208349428,-0.034854704,0.100923064,Subject B,Focused
-0.068313617,-0.784067618,-0.206335675,0.073324713,0.006770634,Subject B,Focused
-0.060851174,-0.56035736,-0.195326895,0.23403817,-0.021753106,Subject B,Focused
-0.053280823,0.027939476,-0.188206484,0.361687937,-0.008536608,Subject B,Focused
-0.045602323,0.239020869,-0.186195997,0.399487571,-0.020301531,Subject B,Focused
-0.037815442,-0.18549904,-0.18179502,0.375330701,-0.079656071,Subject B,Focused
-0.029919959,-0.714276551,-0.177607205,0.373029191,-0.145000371,Subject B,Focused
-0.02191566,-0.71925745,-0.188128169,0.443159519,-0.177230956,Subject B,Focused
-0.013802345,-0.245286185,-0.21553671,0.548932874,-0.199986297,Subject B,Focused
-0.005579819,0.111555154,-0.234855246,0.606594556,-0.279901489,Subject B,Focused
0.002752101,-0.000689986,-0.2161625,0.572013402,-0.453134065,Subject B,Focused
0.011193587,-0.274620254,-0.158864472,0.477004607,-0.671041438,Subject B,Focused
0.019744804,-0.217907189,-0.095461074,0.386632176,-0.817544561,Subject B,Focused
0.028405905,0.139632376,-0.063314555,0.337940838,-0.802983901,Subject B,Focused
0.037177034,0.257644886,-0.076760852,0.322815483,-0.662430857,Subject B,Focused
0.046058325,-0.176561229,-0.119057575,0.312847728,-0.540488071,Subject B,Focused
0.055049904,-0.755776156,-0.152927524,0.286897854,-0.545607488,Subject B,Focused
0.064151886,-0.805564376,-0.145686887,0.241292119,-0.633840623,Subject B,Focused
0.073364374,-0.243530343,-0.095094885,0.188833314,-0.676273919,Subject B,Focused
0.082687466,0.282219048,-0.029679441,0.153131901,-0.629840216,Subject B,Focused
0.092121246,0.197555526,0.018895904,0.156621656,-0.582958839,Subject B,Focused
0.10166579,-0.278117355,0.036516004,0.204220202,-0.61633286,Subject B,Focused
0.111321162,-0.440707303,0.018958045,0.274466426,-0.67850325,Subject B,Focused
0.121087417,-0.038868547,-0.038676441,0.330249743,-0.654339014,Subject B,Focused
0.130964598,0.391778124,-0.130297337,0.345849694,-0.530850684,Subject B,Focused
0.140952739,0.240524732,-0.225869074,0.328338532,-0.427481044,Subject B,Focused
0.151051862,-0.355610079,-0.286702922,0.310935015,-0.446869009,Subject B,Focused
0.16126198,-0.662255899,-0.294106724,0.3198257,-0.54613351,Subject B,Focused
0.171583097,-0.277699981,-0.256894134,0.344145705,-0.594610592,Subject B,Focused
0.182015203,0.365784674,-0.198166985,0.341860674,-0.533939988,Subject B,Focused
0.192558279,0.563781659,-0.145253767,0.282028619,-0.43244603,Subject B,Focused
0.203212296,0.21792012,-0.123458249,0.182295574,-0.377393772,Subject B,Focused
0.213977212,-0.096418861,-0.139576354,0.097235024,-0.359643718,Subject B,Focused
0.224852977,0.079181941,-0.168490793,0.065326446,-0.300340303,Subject B,Focused
0.235839528,0.493359795,-0.171406986,0.075102937,-0.171034954,Subject B,Focused
0.246936794,0.550191329,-0.136968426,0.089682784,-0.040438504,Subject B,Focused
0.258144691,0.115313074,-0.097655338,0.091683957,0.008852224,Subject B,Focused
0.269463126,-0.318114298,-0.096331571,0.086016518,-0.022648372,Subject B,Focused
0.280891997,-0.304478581,-0.138379736,0.066661461,-0.062195382,Subject B,Focused
0.292431189,-0.03549686,-0.184939535,0.011053909,-0.055684324,Subject B,Focused
0.304080577,-0.05225851,-0.194340511,-0.080001072,-0.015581297,Subject B,Focused
0.315840026,-0.481022839,-0.163081965,-0.157606212,0.020664183,Subject B,Focused
0.327709389,-0.83639009,-0.123151932,-0.163249248,0.04121706,Subject B,Focused
0.339688507,-0.670652072,-0.104214918,-0.09004914,0.045774528,Subject B,Focused
0.35177721,-0.200673596,-0.101666012,0.009076579,0.011726593,Subject B,Focused
0.363975316,-0.050728277,-0.08091117,0.075306006,-0.080858219,Subject B,Focused
0.37628263,-0.424132767,-0.016542563,0.093833859,-0.193087227,Subject B,Focused
0.388698948,-0.804957375,0.068676884,0.087661168,-0.236784797,Subject B,Focused
0.401224054,-0.618564466,0.112906696,0.076213833,-0.162429564,Subject B,Focused
0.413857718,-0.007211625,0.079117419,0.05289927,-0.024251395,Subject B,Focused
0.426599703,0.307738943,0.00826856,0.001023644,0.062315544,Subject B,Focused
