timestamps,TP9,AF7,AF8,TP10,Subject,Emotion
-0.000810294,0.028662619,-0.363697138,0.235627527,-0.660502995,Subject D,Focused
-0.000763532,0.0242869,-0.286606099,0.282975436,-0.432695079,Subject D,Focused
-0.000718543,-0.426824607,-0.152588018,0.32596963,-0.419558804,Subject D,Focused
-0.000675336,-0.666503568,-0.025200071,0.383312907,-0.521830628,Subject D,Focused
-0.000633919,-0.310376161,0.051435485,0.447711722,-0.507446915,Subject D,Focused
-0.000594296,0.203360348,0.080243554,0.482251587,-0.342520395,Subject D,Focused
-0.000556472,0.181146242,0.087981435,0.460069671,-0.240940428,Subject D,Focused
-0.000520449,-0.387738852,0.092164257,0.400875409,-0.3682757,Subject D,Focused
-0.000486226,-0.787042778,0.093165527,0.354100375,-0.590720406,Subject D,Focused
-0.000453802,-0.501921871,0.085385542,0.345515629,-0.605592389,Subject D,Focused
-0.000423174,0.108779217,0.067364472,0.356688853,-0.300624416,Subject D,Focused
-0.00039434,0.290183518,0.046746988,0.364381008,0.108800146,Subject D,Focused
-0.000367293,-0.118726554,0.041841495,0.381267273,0.332813198,Subject D,Focused
-0.000342025,-0.499099973,0.072006887,0.435556299,0.319319256,Subject D,Focused
-0.000318525,-0.307030419,0.136306513,0.516801158,0.23906521,Subject D,Focused
-0.000296783,0.18604906,0.203975794,0.568412217,0.211750611,Subject D,Focused
-0.000276786,0.264665394,0.238288048,0.544332586,0.172036069,Subject D,Focused
-0.000258522,-0.249404056,0.23455003,0.457989994,0.036542604,Subject D,Focused
-0.000241976,-0.734411284,0.225737278,0.362076691,-0.10960226,Subject D,Focused
-0.000227132,-0.587827201,0.242315397,0.289237109,-0.103092223,Subject D,Focused
-0.000213976,-0.029379082,0.27151196,0.227983916,0.050521413,Subject D,Focused
-0.000202491,0.192021963,0.268480284,0.153285584,0.139091578,Subject D,Focused
-0.000192658,-0.208142894,0.211162983,0.063300467,0.004476355,Subject D,Focused
-0.000184459,-0.688928056,0.133659125,-0.019731415,-0.231441394,Subject D,Focused
-0.000177873,-0.6278166,0.093676187,-0.072512147,-0.290589585,Subject D,Focused
-0.000172882,-0.158539261,0.110074454,-0.084668325,-0.077413197,Subject D,Focused
-0.000169464,0.019429761,0.146579782,-0.056965188,0.191197894,Subject D,Focused
-0.000167598,-0.40521451,0.159572114,0.001022436,0.232922522,Subject D,Focused
-0.000167261,-0.920091558,0.145297757,0.068891867,0.022058238,Subject D,Focused
-0.000168428,-0.860035207,0.128305298,0.119903243,-0.206676209,Subject D,Focused
-0.000171076,-0.302595629,0.117078631,0.136194198,-0.269872316,Subject D,Focused
-0.00017518,0.003926397,0.094011717,0.121328105,-0.263067382,Subject D,Focused
-0.000180716,-0.386976719,0.051616294,0.095429999,-0.403588702,Subject D,Focused
-0.000187656,-1.010664262,0.017812695,0.076902077,-0.687779901,Subject D,Focused
-0.000195975,-1.068452635,0.02672939,0.069918986,-0.833205402,Subject D,Focused
-0.000205648,-0.465867762,0.070384684,0.068458095,-0.621225818,Subject D,Focused
-0.000216647,0.052502035,0.101387459,0.066856966,-0.204964833,Subject D,Focused
-0.000228945,-0.126427777,0.089999336,0.062565979,0.037324013,Subject D,Focused
-0.000242513,-0.675290585,0.059027021,0.052744483,-0.071983224,Subject D,Focused
-0.000257321,-0.754122439,0.046927376,0.035128673,-0.345710509,Subject D,Focused
-0.000273337,-0.120993526,0.049918632,0.012260277,-0.508253498,Subject D,Focused
-0.00029053,0.534618113,0.023669853,-0.009566097,-0.518561127,Subject D,Focused
-0.000308867,0.475681297,-0.055392896,-0.024415334,-0.530872698,Subject D,Focused
-0.000328312,-0.137461466,-0.147109955,-0.025890356,-0.598401214,Subject D,Focused
-0.000348831,-0.473283367,-0.179449124,-0.007007652,-0.557727864,Subject D,Focused
-0.000370386,-0.119200262,-0.124320216,0.029995708,-0.264648608,Subject D,Focused
-0.00039294,0.403800108,-0.034880586,0.066804461,0.141793064,Subject D,Focused
-0.000416456,0.369608444,-0.00049364,0.085009453,0.335012236,Subject D,Focused
-0.000440892,-0.169172336,-0.062180066,0.090745997,0.176145222,Subject D,Focused
-0.000466207,-0.45833292,-0.173278153,0.110388238,-0.106576476,Subject D,Focused
-0.000492361,-0.06491485,-0.243109158,0.156164611,-0.185937745,Subject D,Focused
-0.000519312,0.5300154,-0.219032557,0.20734943,-0.025777271,Subject D,Focused
-0.000547019,0.556113606,-0.130528069,0.232965363,0.09979921,Subject D,Focused
-0.000575438,-0.041538296,-0.060529363,0.223039463,-0.026015591,Subject D,Focused
-0.000604526,-0.546567739,-0.073506217,0.188653222,-0.286526736,Subject D,Focused
-0.000634241,-0.419720592,-0.161540223,0.141725266,-0.390389698,Subject D,Focused
-0.000664539,0.018340969,-0.253817928,0.090115105,-0.24074746,Subject D,Focused
-0.00069538,0.059357679,-0.284121679,0.049868629,-0.039601258,Subject D,Focused
-0.000726722,-0.428436365,-0.255832262,0.045547335,-0.021593496,Subject D,Focused
-0.000758522,-0.842436474,-0.237081011,0.089036518,-0.183681379,Subject D,Focused
-0.000790738,-0.680348542,-0.28650413,0.162175966,-0.343492795,Subject D,Focused
-0.00082333,-0.221696414,-0.389443198,0.226312029,-0.408496194,Subject D,Focused
-0.000856266,-0.141890907,-0.475392087,0.249779128,-0.479864631,Subject D,Focused
-0.000889509,-0.592947029,-0.492295205,0.227741159,-0.663278576,Subject D,Focused
-0.000923012,-0.994372366,-0.450107857,0.182163169,-0.864995578,Subject D,Focused
-0.000956728,-0.814575605,-0.392317483,0.147648262,-0.874413698,Subject D,Focused
-0.00099062,-0.287027541,-0.343742841,0.152297728,-0.635819242,Subject D,Focused
-0.001024677,-0.086734813,-0.300172369,0.199758457,-0.330811725,Subject D,Focused
-0.001058882,-0.395268735,-0.257666698,0.261724321,-0.141265655,Subject D,Focused
-0.001093171,-0.628239176,-0.22641298,0.292794306,-0.016385765,Subject D,Focused
-0.001127447,-0.224317802,-0.208173347,0.265785094,0.223855846,Subject D,Focused
-0.001161667,0.549288083,-0.180932466,0.200720274,0.586444509,Subject D,Focused
-0.001195898,0.880920487,-0.126529267,0.155479332,0.831994918,Subject D,Focused
-0.001230224,0.456308928,-0.065457792,0.177665513,0.757976153,Subject D,Focused
-0.001264533,-0.106902204,-0.041217551,0.259161358,0.480163138,Subject D,Focused
-0.001298505,-0.033638675,-0.067442347,0.339867513,0.330953232,Subject D,Focused
-0.001331981,0.607484959,-0.110202966,0.361375627,0.473598178,Subject D,Focused
-0.001365329,0.982708941,-0.130448382,0.319510492,0.708094467,Subject D,Focused
-0.001399132,0.567559317,-0.125673469,0.265392017,0.724596019,Subject D,Focused
-0.001433217,-0.168307579,-0.115854285,0.257697565,0.498080348,Subject D,Focused
-0.001466299,-0.351920855,-0.104172018,0.313702911,0.325692205,Subject D,Focused
-0.001497425,0.19708832,-0.074754951,0.399875657,0.451707187,Subject D,Focused
-0.001527968,0.781445675,-0.025632429,0.462776716,0.755392757,Subject D,Focused
-0.001560923,0.763213163,0.018899942,0.470351344,0.907442574,Subject D,Focused
-0.001596579,0.373094263,0.038264052,0.431536472,0.795333924,Subject D,Focused
-0.001629693,0.34457335,0.046605662,0.382553853,0.65632542,Subject D,Focused
-0.001654688,0.895549308,0.080262224,0.354813562,0.738381482,Subject D,Focused
-0.001675821,1.420334063,0.151479041,0.352273288,0.944480111,Subject D,Focused
-0.001707564,1.278866193,0.222392761,0.355335097,0.943502027,Subject D,Focused
-0.001756271,0.619087218,0.237541278,0.344039715,0.605955568,Subject D,Focused
-0.001800174,0.159879661,0.187098349,0.316155356,0.189101124,Subject D,Focused
-0.001798854,0.252420372,0.126791651,0.281858814,0.027341336,Subject D,Focused
-0.001734199,0.469159797,0.122663755,0.245002257,0.13054813,Subject D,Focused
-0.001638971,0.246379803,0.182904821,0.200239258,0.210049491,Subject D,Focused
-0.001573039,-0.296043605,0.258914044,0.151254848,0.092225549,Subject D,Focused
-0.001569161,-0.474239972,0.306414839,0.115822141,-0.032710378,Subject D,Focused
-0.001609225,0.032474373,0.323403052,0.098441397,0.131069188,Subject D,Focused
-0.001652807,0.68480984,0.329160661,0.070940214,0.55392232,Subject D,Focused
-0.001678135,0.726377787,0.333492978,0.004612559,0.859341259,Subject D,Focused
-0.001691556,0.15809677,0.339711508,-0.080443461,0.763866425,Subject D,Focused
-0.001707534,-0.25235421,0.359216227,-0.124428554,0.417001465,Subject D,Focused
-0.001730323,0.028439077,0.402284389,-0.097339871,0.204847629,Subject D,Focused
-0.001754337,0.59939436,0.455912935,-0.041882906,0.27644008,Subject D,Focused
-0.001774327,0.660351422,0.484103187,-0.031059167,0.398311507,Subject D,Focused
-0.001790576,0.075653771,0.457643471,-0.090828441,0.299290919,Subject D,Focused
-0.001806074,-0.451028403,0.383325224,-0.179705641,0.030692568,Subject D,Focused
-0.001822195,-0.31819092,0.301304783,-0.242658948,-0.131442015,Subject D,Focused
-0.001837979,0.181481414,0.252375048,-0.269509168,-0.091603643,Subject D,Focused
-0.001852146,0.275089642,0.247098817,-0.292573357,-0.082509115,Subject D,Focused
-0.001864521,-0.235948147,0.2638341,-0.33689044,-0.33955032,Subject D,Focused
-0.001875689,-0.698714927,0.270982486,-0.388678202,-0.738344676,Subject D,Focused
-0.001886018,-0.476670149,0.249571798,-0.415902285,-0.90293076,Subject D,Focused
-0.001895351,0.201465127,0.203317269,-0.407848627,-0.666559281,Subject D,Focused
-0.00190337,0.539719955,0.15762468,-0.3843254,-0.28484282,Subject D,Focused
-0.001909965,0.211314535,0.144738332,-0.369677932,-0.123013001,Subject D,Focused
-0.001915221,-0.24568068,0.173966231,-0.367095568,-0.228831339,Subject D,Focused
-0.001919209,-0.179694415,0.212306192,-0.361937741,-0.332204698,Subject D,Focused
-0.001921887,0.29779756,0.209384046,-0.347350652,-0.233601133,Subject D,Focused
-0.001923161,0.484237381,0.153046968,-0.339280489,-0.049280756,Subject D,Focused
-0.001922974,0.06907483,0.091186016,-0.358044526,-0.009051409,Subject D,Focused
-0.001921313,-0.404649302,0.083740927,-0.396560809,-0.11363712,Subject D,Focused
-0.001918175,-0.247724384,0.134645933,-0.420154268,-0.132280083,Subject D,Focused
-0.001913533,0.424781841,0.184519608,-0.40514534,0.060056161,Subject D,Focused
-0.001907347,0.78997851,0.174425697,-0.367397362,0.283084436,Subject D,Focused
-0.001899581,0.382186927,0.107564828,-0.342159662,0.284619154,Subject D,Focused
-0.001890214,-0.261883996,0.043380212,-0.343648316,0.099983636,Subject D,Focused
-0.001879225,-0.258954556,0.038476335,-0.358826457,0.033438221,Subject D,Focused
-0.001866591,0.481169599,0.097043882,-0.377534363,0.257983687,Subject D,Focused
-0.001852286,1.110956125,0.168339484,-0.409506531,0.561111054,Subject D,Focused
-0.001836283,0.901892263,0.183684284,-0.462128092,0.593242142,Subject D,Focused
-0.001818557,0.147822569,0.106093223,-0.513116823,0.312437522,Subject D,Focused
-0.001799084,-0.24065428,-0.037972967,-0.520619813,0.048612226,Subject D,Focused
-0.001777842,0.098688414,-0.170426553,-0.461083957,0.099946696,Subject D,Focused
-0.001754804,0.573348645,-0.214096207,-0.350900736,0.378667735,Subject D,Focused
-0.001729945,0.47831279,-0.144830372,-0.233201015,0.551625917,Subject D,Focused
-0.00170324,-0.062731571,0.000502256,-0.148970052,0.47629307,Subject D,Focused
-0.001674667,-0.29553256,0.160592955,-0.115209216,0.3601945,Subject D,Focused
-0.001644201,0.122870104,0.290830904,-0.119120373,0.450456386,Subject D,Focused
-0.001611819,0.641099633,0.375439504,-0.130576785,0.683940764,Subject D,Focused
-0.001577498,0.534228053,0.415630981,-0.126145382,0.769233722,Subject D,Focused
-0.001541215,-0.12629933,0.419902475,-0.105628548,0.579444586,Subject D,Focused
-0.00150295,-0.543658254,0.406201994,-0.087521703,0.316567985,Subject D,Focused
-0.001462682,-0.227325595,0.401561443,-0.09067711,0.232313519,Subject D,Focused
-0.001420392,0.372060135,0.427203109,-0.118554812,0.300282142,Subject D,Focused
-0.001376061,0.471402969,0.479824002,-0.154771715,0.288465103,Subject D,Focused
-0.001329669,0.005404278,0.530090278,-0.171952621,0.119608662,Subject D,Focused
-0.001281197,-0.286564472,0.543218902,-0.150999012,0.010528844,Subject D,Focused
-0.001230628,0.134771642,0.504398874,-0.096387481,0.185564382,Subject D,Focused
-0.001177943,0.857996016,0.430446913,-0.031135695,0.545190115,Subject D,Focused
-0.001123122,1.047960602,0.36382666,0.022542684,0.74746784,Subject D,Focused
-0.001066148,0.554813283,0.351080777,0.053226429,0.619674086,Subject D,Focused
-0.001007,0.108086475,0.408585044,0.054899447,0.37417685,Subject D,Focused
-0.000945659,0.325490374,0.497240192,0.024593114,0.345318738,Subject D,Focused
-0.000882105,0.876889693,0.54258266,-0.028474003,0.578464433,Subject D,Focused
-0.000816316,0.939639935,0.500064543,-0.078682809,0.788389472,Subject D,Focused
-0.000748273,0.325853723,0.402282094,-0.097887311,0.725678531,Subject D,Focused
-0.000677954,-0.248524697,0.328126953,-0.075167958,0.474563407,Subject D,Focused
-0.000605337,-0.110155405,0.321113814,-0.021321047,0.315829225,Subject D,Focused
-0.000530404,0.49121476,0.347972428,0.044444116,0.359654053,Subject D,Focused
-0.000453133,0.733517217,0.341706697,0.107672653,0.431902251,Subject D,Focused
-0.000373507,0.303166417,0.27526319,0.157484349,0.341142528,Subject D,Focused
-0.000291505,-0.241447906,0.184297922,0.178678336,0.15368515,Subject D,Focused
-0.00020711,-0.270542523,0.122735721,0.154445148,0.107596087,Subject D,Focused
-0.000120305,0.062071749,0.106280233,0.081759937,0.278776156,Subject D,Focused
-3.11e-05,0.060419154,0.102367659,-0.016953753,0.444902566,Subject D,Focused
6.06e-05,-0.515669681,0.070929878,-0.100657313,0.346945723,Subject D,Focused
0.000154748,-1.055525568,0.009988429,-0.131921747,0.026019138,Subject D,Focused
0.000251365,-0.861274421,-0.0403126,-0.097868612,-0.208845218,Subject D,Focused
0.000350476,-0.0751165,-0.037163622,-0.016157711,-0.15886732,Subject D,Focused
0.000452092,0.460444364,0.023007414,0.075317018,0.026829311,Subject D,Focused
0.000556227,0.246505774,0.101749496,0.138573417,0.068048232,Subject D,Focused
0.000662892,-0.27366096,0.156183746,0.155982181,-0.064872856,Subject D,Focused
0.000772099,-0.328904427,0.17665221,0.138270297,-0.119356657,Subject D,Focused
0.000883856,0.173151901,0.184801306,0.11299252,0.078801068,Subject D,Focused
0.00099817,0.571190347,0.198087258,0.103834134,0.366921757,Subject D,Focused
0.001115046,0.381156859,0.204719252,0.118933499,0.44961045,Subject D,Focused
0.001234491,-0.036910735,0.176728417,0.15239019,0.295634886,Subject D,Focused
0.001356507,0.016306642,0.102019192,0.189039999,0.187800603,Subject D,Focused
0.001481099,0.585434475,-0.001708281,0.208081592,0.348732515,Subject D,Focused
0.001608269,0.937362005,-0.103187218,0.191875612,0.63742364,Subject D,Focused
0.001738016,0.509266854,-0.184594309,0.140269402,0.72232215,Subject D,Focused
0.001870339,-0.321145125,-0.25306644,0.076034733,0.506176557,Subject D,Focused
0.002005235,-0.678948952,-0.325277782,0.029734818,0.245029132,Subject D,Focused
0.002142703,-0.2823982,-0.396399357,0.014657891,0.206801762,Subject D,Focused
0.002282736,0.238814278,-0.425738721,0.015846088,0.320750567,Subject D,Focused
0.002425331,0.189650442,-0.367977025,0.003828533,0.28227105,Subject D,Focused
0.002570482,-0.309818125,-0.230885284,-0.040400426,-0.021699525,Subject D,Focused
0.002718183,-0.543353977,-0.090390614,-0.111682646,-0.332237322,Subject D,Focused
0.002868428,-0.177750997,-0.025077084,-0.18753457,-0.336258541,Subject D,Focused
0.00302121,0.311377946,-0.033900677,-0.243671563,-0.071085734,Subject D,Focused
0.003176521,0.305089567,-0.040211256,-0.261611839,0.129486889,Subject D,Focused
0.003334352,-0.118355927,0.012138092,-0.229715048,0.083062245,Subject D,Focused
0.003494692,-0.296431103,0.084323384,-0.15175601,-0.010331092,Subject D,Focused
0.003657529,0.104178118,0.084293584,-0.059891453,0.122764401,Subject D,Focused
0.003822854,0.597442166,-0.021904934,-0.006782407,0.406321871,Subject D,Focused
0.003990654,0.484321469,-0.160537964,-0.028006593,0.470995762,Subject D,Focused
0.004160915,-0.221436682,-0.218210757,-0.108288276,0.126866537,Subject D,Focused
0.004333624,-0.765571102,-0.149365389,-0.192231655,-0.375243441,Subject D,Focused
0.004508766,-0.579721093,-0.01216965,-0.23216506,-0.631426003,Subject D,Focused
0.004686321,0.02841178,0.092278089,-0.221528978,-0.53811159,Subject D,Focused
0.004866273,0.301719069,0.10889128,-0.18198613,-0.345026053,Subject D,Focused
0.005048598,-5.52e-05,0.063456884,-0.130620862,-0.29026004,Subject D,Focused
0.005233274,-0.352428488,0.021214908,-0.071519847,-0.320925829,Subject D,Focused
0.005420275,-0.217322862,0.019039532,-0.013111948,-0.238609634,Subject D,Focused
0.005609572,0.237496425,0.04001502,0.024745594,-0.026597002,Subject D,Focused
0.005801137,0.394949748,0.047046085,0.029344499,0.105239726,Subject D,Focused
0.005994937,0.042939617,0.027897867,0.013528864,0.015750379,Subject D,Focused
0.006190939,-0.332537467,0.001589632,0.007757374,-0.146267189,Subject D,Focused
0.006389107,-0.206064772,-0.011099106,0.033478686,-0.115332554,Subject D,Focused
0.006589405,0.261537128,-0.012666661,0.083996678,0.136309074,Subject D,Focused
0.006791796,0.416597493,-0.022640683,0.128129256,0.33784638,Subject D,Focused
0.006996242,-0.002460851,-0.050023304,0.133125888,0.256977733,Subject D,Focused
0.007202704,-0.462966449,-0.075925023,0.089288962,0.010467447,Subject D,Focused
0.00741114,-0.297717388,-0.068610434,0.015135588,-0.064562116,Subject D,Focused
0.007621507,0.405585683,-0.01929335,-0.060274666,0.167976327,Subject D,Focused
0.007833761,0.877114515,0.041090491,-0.114839666,0.464759019,Subject D,Focused
0.008047859,0.647833227,0.069061046,-0.132244908,0.502744346,Subject D,Focused
0.008263754,0.154509983,0.053947606,-0.098789228,0.274765262,Subject D,Focused
0.008481397,0.144501821,0.028181699,-0.021400329,0.070893825,Subject D,Focused
0.008700741,0.658274706,0.025419286,0.053876883,0.080099916,Subject D,Focused
0.008921731,0.955430124,0.03337255,0.06626776,0.150071854,Subject D,Focused
0.009144316,0.502297878,0.0024221,-0.002288998,0.024586582,Subject D,Focused
0.009368439,-0.290157064,-0.093182685,-0.104857204,-0.272546772,Subject D,Focused
0.009594043,-0.577010618,-0.216043281,-0.176621319,-0.436165005,Subject D,Focused
0.009821069,-0.179353421,-0.302288971,-0.197053737,-0.272405547,Subject D,Focused
0.010049457,0.184013348,-0.331008139,-0.195073742,0.03223014,Subject D,Focused
0.010279143,-0.148510908,-0.339940737,-0.201396148,0.124339389,Subject D,Focused
0.010510064,-0.895152363,-0.373610516,-0.213663154,-0.087641423,Subject D,Focused
0.010742155,-1.185835104,-0.434766219,-0.211178176,-0.335766725,Subject D,Focused
0.010975349,-0.696952593,-0.49292648,-0.189411172,-0.347482022,Subject D,Focused
0.011209577,-0.0754959,-0.523646061,-0.166671002,-0.191514083,Subject D,Focused
0.011444771,-0.092602621,-0.523699777,-0.157210177,-0.165899176,Subject D,Focused
0.011680862,-0.633951923,-0.494233013,-0.148906241,-0.377195236,Subject D,Focused
0.011917779,-0.849945317,-0.428100951,-0.117266475,-0.566394222,Subject D,Focused
0.012155452,-0.267994852,-0.322826374,-0.059566493,-0.418804746,Subject D,Focused
0.012393806,0.589633803,-0.199254599,-0.005600504,0.036030423,Subject D,Focused
0.012632765,0.882683611,-0.097602968,0.008020767,0.451765169,Subject D,Focused
0.012872252,0.525113851,-0.050779334,-0.031616881,0.587513718,Subject D,Focused
0.013112188,0.250156881,-0.058798209,-0.107944076,0.577649108,Subject D,Focused
0.013352491,0.605728394,-0.087000355,-0.187879683,0.700109504,Subject D,Focused
0.013593078,1.219825892,-0.09292202,-0.235930287,0.959746757,Subject D,Focused
0.013833863,1.300403175,-0.061729824,-0.228470585,1.054556456,Subject D,Focused
0.014074759,0.695743925,-0.015612436,-0.16899306,0.777591088,Subject D,Focused
0.01431568,0.105822827,0.01531151,-0.0879208,0.311592331,Subject D,Focused
0.014556538,0.166430419,0.027403554,-0.01678631,0.013678912,Subject D,Focused
0.014797245,0.624647143,0.040805424,0.039081336,-0.019679599,Subject D,Focused
0.015037712,0.700059046,0.064626242,0.095507466,-0.023261408,Subject D,Focused
0.015277852,0.143164246,0.076693649,0.157373803,-0.192517307,Subject D,Focused
0.015517575,-0.427767009,0.044391287,0.201377251,-0.395304651,Subject D,Focused
0.015756792,-0.360119283,-0.038063307,0.196915479,-0.360680375,Subject D,Focused
0.015995413,0.150881681,-0.137804928,0.140014369,-0.080072775,Subject D,Focused
0.016233346,0.314993055,-0.209533773,0.061489234,0.130048543,Subject D,Focused
0.016470498,-0.205952061,-0.233905108,0.003183415,0.002360763,Subject D,Focused
0.016706774,-0.856109903,-0.231003497,-0.011133888,-0.346884446,Subject D,Focused
0.01694208,-0.927170748,-0.236438597,0.01463542,-0.55177164,Subject D,Focused
0.01717632,-0.478991869,-0.266298374,0.059021306,-0.432701084,Subject D,Focused
