timestamps,TP9,AF7,AF8,TP10,Subject,Emotion
0.010269416,-0.018373121,-0.024290742,-0.024447807,-0.110077442,Subject C,Focused
0.010126001,0.286388102,-0.050245416,-0.004455051,-0.09536942,Subject C,Focused
0.00996405,0.148272637,-0.060613909,0.009174601,-0.108443758,Subject C,Focused
0.009805317,-0.284116581,-0.087782338,-0.016099696,-0.257273052,Subject C,Focused
0.009690206,-0.497377247,-0.144181007,-0.06290391,-0.431762979,Subject C,Focused
0.009636812,-0.27928077,-0.193452894,-0.080597795,-0.43711955,Subject C,Focused
0.009612359,0.023494203,-0.186677345,-0.049517456,-0.266985091,Subject C,Focused
0.00955696,-0.015709105,-0.123237795,-0.00901094,-0.139300648,Subject C,Focused
0.009437841,-0.338289148,-0.057359473,-0.009543842,-0.234374546,Subject C,Focused
0.0092731,-0.487300153,-0.039205828,-0.04893407,-0.46212566,Subject C,Focused
0.009103148,-0.209732122,-0.064005131,-0.075415762,-0.554989055,Subject C,Focused
0.008949741,0.215426284,-0.089348366,-0.053392292,-0.382628388,Subject C,Focused
0.008806521,0.326562665,-0.091919017,-0.006915748,-0.104303442,Subject C,Focused
0.008659007,0.03913837,-0.090829419,0.012479263,0.030044225,Subject C,Focused
0.008502935,-0.290081453,-0.114038909,-0.010525545,-0.026652474,Subject C,Focused
0.008343876,-0.343054778,-0.154420318,-0.039329762,-0.105646131,Subject C,Focused
0.008187068,-0.219961284,-0.170441835,-0.033315258,-0.081965702,Subject C,Focused
0.008032218,-0.23215689,-0.132789605,0.002467835,-0.033694419,Subject C,Focused
0.007876327,-0.421714013,-0.064000281,0.026962768,-0.090655287,Subject C,Focused
0.007718014,-0.486895829,-0.021083714,0.017918874,-0.209065963,Subject C,Focused
0.007558232,-0.217381385,-0.033868643,-0.000776189,-0.203818488,Subject C,Focused
0.007398257,0.177546054,-0.068627365,0.004233979,-0.000489543,Subject C,Focused
0.00723826,0.318854852,-0.064962565,0.027206731,0.238714678,Subject C,Focused
0.007077654,0.153279804,-0.008993901,0.03315802,0.298401935,Subject C,Focused
0.006916066,0.021277111,0.042560797,0.012489512,0.177241963,Subject C,Focused
0.006753653,0.200701687,0.020139021,-0.000907261,0.089735574,Subject C,Focused
0.006590731,0.529207906,-0.082299509,0.02114937,0.183505266,Subject C,Focused
0.006427409,0.604390585,-0.199257757,0.053701259,0.32851766,Subject C,Focused
0.006263604,0.30395034,-0.261467476,0.045925576,0.26559672,Subject C,Focused
0.006099245,-0.04935009,-0.260176209,-0.007740455,-0.050088564,Subject C,Focused
0.005934376,-0.092181932,-0.240243888,-0.050722555,-0.342763652,Subject C,Focused
0.005769097,0.12842849,-0.243305592,-0.032156997,-0.30615761,Subject C,Focused
0.005603472,0.235536922,-0.271854858,0.02453723,0.042130977,Subject C,Focused
0.005437523,0.01926527,-0.302493796,0.042947343,0.370159617,Subject C,Focused
0.005271267,-0.29493564,-0.314231946,-0.016792813,0.400535332,Subject C,Focused
0.005104744,-0.338669764,-0.29674549,-0.107578293,0.203795312,Subject C,Focused
0.004938014,-0.059047334,-0.24550788,-0.143742462,0.085413688,Subject C,Focused
0.004771131,0.242170006,-0.164969533,-0.091494198,0.226539799,Subject C,Focused
0.004604141,0.308357989,-0.073911008,-0.000553854,0.49962279,Subject C,Focused
0.004437088,0.226802759,0.007062059,0.052847302,0.634036329,Subject C,Focused
0.004270019,0.253739893,0.07781167,0.044280187,0.507494119,Subject C,Focused
0.004102985,0.43207615,0.157924929,0.015829594,0.243990752,Subject C,Focused
0.003936039,0.525190865,0.255357289,0.017900832,0.051716397,Subject C,Focused
0.003769231,0.352303377,0.341522099,0.051168942,0.02038369,Subject C,Focused
0.00360261,0.073507207,0.370041645,0.075420029,0.104685808,Subject C,Focused
0.003436227,0.027342954,0.325862347,0.065009042,0.253144641,Subject C,Focused
0.003270134,0.299333596,0.249445098,0.034378197,0.45434286,Subject C,Focused
0.003104385,0.575414178,0.201794313,0.0055136,0.639358737,Subject C,Focused
0.002939032,0.511203751,0.20419778,-0.026672042,0.650974778,Subject C,Focused
0.00277413,0.183372008,0.22168527,-0.076110474,0.415922436,Subject C,Focused
0.002609731,0.028685135,0.210509783,-0.124235561,0.108647999,Subject C,Focused
0.002445888,0.298921129,0.172689609,-0.126408504,0.020434885,Subject C,Focused
0.002282654,0.714175067,0.152815406,-0.068727481,0.229025064,Subject C,Focused
0.002120079,0.789467668,0.18290256,0.002087473,0.483885181,Subject C,Focused
0.001958212,0.437805527,0.241332261,0.025047448,0.488971342,Subject C,Focused
0.001797101,0.064081766,0.273900546,-0.005186515,0.251363555,Subject C,Focused
0.001636794,0.026146878,0.254178918,-0.033914253,0.063457461,Subject C,Focused
0.001477336,0.185241787,0.214685769,-0.015615649,0.146988686,Subject C,Focused
0.001318772,0.141179009,0.210249575,0.029259388,0.402223551,Subject C,Focused
0.001161145,-0.185000583,0.252384974,0.041131007,0.547668872,Subject C,Focused
0.001004495,-0.425055953,0.291398449,-0.002418602,0.445428951,Subject C,Focused
0.000848861,-0.271645361,0.270348622,-0.056784796,0.217641641,Subject C,Focused
0.000694283,0.068785821,0.189170368,-0.063150057,0.058594249,Subject C,Focused
0.000540797,0.108318629,0.1041224,-0.0161058,0.014062357,Subject C,Focused
0.000388439,-0.286344322,0.06634634,0.037588769,-0.004869405,Subject C,Focused
0.000237245,-0.689848837,0.074179067,0.061399177,-0.034058878,Subject C,Focused
8.72e-05,-0.633227681,0.089382231,0.06739552,0.018186129,Subject C,Focused
-6.15e-05,-0.185882285,0.087916297,0.084484298,0.213315384,Subject C,Focused
-0.00020903,0.139780939,0.083206264,0.108712277,0.424142567,Subject C,Focused
-0.000355249,0.029668384,0.100324053,0.107465712,0.444603848,Subject C,Focused
-0.00050015,-0.270216712,0.135103995,0.068298727,0.260734093,Subject C,Focused
-0.000643704,-0.314126519,0.148095394,0.02150594,0.105854444,Subject C,Focused
-0.000785887,-0.042317692,0.108009884,0.005619687,0.184092745,Subject C,Focused
-0.000926672,0.171650883,0.040321857,0.022294952,0.406928705,Subject C,Focused
-0.001066035,0.044482345,0.01652923,0.037850728,0.494999207,Subject C,Focused
-0.00120395,-0.238543725,0.080940187,0.028008455,0.320847049,Subject C,Focused
-0.001340395,-0.289587139,0.194910617,0.009600422,0.055065542,Subject C,Focused
-0.001475345,-0.053032504,0.269696123,0.018952678,-0.054716355,Subject C,Focused
-0.001608777,0.121520789,0.255134344,0.06280403,0.029284317,Subject C,Focused
-0.001740669,-0.03683172,0.183948711,0.105499184,0.137185887,Subject C,Focused
-0.001870997,-0.342626925,0.127103831,0.112237364,0.137994719,Subject C,Focused
-0.001999741,-0.396576528,0.119057359,0.092405604,0.085037752,Subject C,Focused
-0.002126879,-0.117304071,0.136439644,0.083470843,0.091465894,Subject C,Focused
-0.002252391,0.153940535,0.14137977,0.096410495,0.145307204,Subject C,Focused
-0.002376258,0.107760499,0.127249228,0.09865964,0.13141114,Subject C,Focused
-0.002498464,-0.131932215,0.115622849,0.060347397,0.01412149,Subject C,Focused
-0.002618993,-0.186968469,0.122275225,0.000805662,-0.093583988,Subject C,Focused
-0.00273783,0.058215049,0.140888426,-0.031563848,-0.083046314,Subject C,Focused
-0.002854959,0.283060513,0.156032781,-0.022941449,-0.015826361,Subject C,Focused
-0.002970366,0.138749267,0.15881495,-0.01535476,-0.059706783,Subject C,Focused
-0.003084041,-0.279953345,0.147919497,-0.052293833,-0.254939242,Subject C,Focused
-0.003195969,-0.523824677,0.124277159,-0.11704522,-0.416842223,Subject C,Focused
-0.00330614,-0.354013689,0.089654128,-0.146981408,-0.333144793,Subject C,Focused
-0.003414543,-0.052389242,0.04690217,-0.110532938,-0.034902741,Subject C,Focused
-0.003521171,-0.042222629,-0.002253401,-0.049571018,0.209225365,Subject C,Focused
-0.003626017,-0.298297633,-0.056525833,-0.030955581,0.202871823,Subject C,Focused
-0.003729074,-0.350312697,-0.105725407,-0.066924986,0.062496388,Subject C,Focused
-0.003830337,0.080089277,-0.123903632,-0.10428586,0.063270234,Subject C,Focused
-0.003929802,0.641819632,-0.085203359,-0.094426572,0.25812009,Subject C,Focused
-0.004027467,0.73258563,0.002617968,-0.053964379,0.363011768,Subject C,Focused
-0.004123329,0.240401739,0.087721306,-0.040041125,0.094616653,Subject C,Focused
-0.004217388,-0.304844869,0.115643585,-0.075019652,-0.441531485,Subject C,Focused
-0.004309645,-0.368696369,0.086847194,-0.11916507,-0.814764987,Subject C,Focused
-0.004400101,-0.024481989,0.058758228,-0.124322887,-0.736393254,Subject C,Focused
-0.00448876,0.212805287,0.079175861,-0.094353097,-0.371762298,Subject C,Focused
-0.004575623,0.0664616,0.126398684,-0.073123796,-0.124375692,Subject C,Focused
-0.004660696,-0.197748694,0.129577,-0.082384059,-0.169211143,Subject C,Focused
-0.004743985,-0.191283231,0.048767612,-0.097351581,-0.307137004,Subject C,Focused
-0.004825498,0.057006907,-0.073508666,-0.08943164,-0.285607443,Subject C,Focused
-0.004905243,0.164200079,-0.144414289,-0.071022362,-0.138307705,Subject C,Focused
-0.004983231,-0.051009446,-0.104835902,-0.078105767,-0.103563577,Subject C,Focused
-0.005059471,-0.295605443,0.016788485,-0.114731084,-0.261050438,Subject C,Focused
-0.005133978,-0.193119158,0.131651437,-0.137220703,-0.396063904,Subject C,Focused
-0.005206766,0.194124506,0.169023338,-0.105393097,-0.276305442,Subject C,Focused
-0.005277851,0.430495661,0.128902748,-0.038209678,0.036160357,Subject C,Focused
-0.00534725,0.284997634,0.066028342,0.0016402,0.25649849,Subject C,Focused
-0.005414983,0.045864705,0.033473017,-0.018302505,0.232460239,Subject C,Focused
-0.005481068,0.13700504,0.042687052,-0.060141746,0.113064968,Subject C,Focused
-0.005545525,0.536199589,0.066862351,-0.064147523,0.122044802,Subject C,Focused
-0.005608375,0.776580871,0.071729311,-0.02733013,0.249548297,Subject C,Focused
-0.00566964,0.54995838,0.041635534,-0.010805745,0.26591725,Subject C,Focused
-0.005729343,0.123212279,-0.016437705,-0.061730393,0.03102491,Subject C,Focused
-0.005787507,0.007873215,-0.082392701,-0.145268212,-0.302745403,Subject C,Focused
-0.005844156,0.303634407,-0.131236689,-0.176045042,-0.453965365,Subject C,Focused
-0.005899315,0.576153713,-0.1432443,-0.118308864,-0.34067894,Subject C,Focused
-0.005953007,0.434357936,-0.122805654,-0.033586577,-0.165900236,Subject C,Focused
-0.00600526,0.047682789,-0.104718452,-0.011609366,-0.156082366,Subject C,Focused
-0.006056098,-0.08324883,-0.121834808,-0.064688332,-0.286976866,Subject C,Focused
-0.006105549,0.200581727,-0.161568199,-0.116771578,-0.343300934,Subject C,Focused
-0.006153642,0.498041805,-0.175155492,-0.101432137,-0.221020926,Subject C,Focused
-0.006200406,0.379306849,-0.142509952,-0.043126832,-0.067536054,Subject C,Focused
-0.006245868,-0.036891967,-0.108122768,-0.018205829,-0.080808332,Subject C,Focused
-0.00629006,-0.225254352,-0.128830624,-0.050355034,-0.245070838,Subject C,Focused
-0.006333008,0.074790895,-0.195319356,-0.080225607,-0.357900041,Subject C,Focused
-0.006374742,0.537202469,-0.234924051,-0.04767653,-0.310440947,Subject C,Focused
-0.00641529,0.672751827,-0.198771487,0.025992824,-0.245809313,Subject C,Focused
-0.006454682,0.41603858,-0.122090168,0.065686472,-0.376755477,Subject C,Focused
-0.006492947,0.127555881,-0.080934915,0.039882437,-0.690170831,Subject C,Focused
-0.006530117,0.072558012,-0.103431639,-0.003438712,-0.929375987,Subject C,Focused
-0.006566223,0.101759098,-0.146384564,-0.005629464,-0.897859956,Subject C,Focused
-0.006601294,-0.069540089,-0.156722746,0.026109444,-0.699151243,Subject C,Focused
-0.006635362,-0.404397382,-0.132312083,0.035230547,-0.591969736,Subject C,Focused
-0.006668456,-0.545487577,-0.110172286,-0.002790122,-0.645956173,Subject C,Focused
-0.006700609,-0.276940518,-0.108938316,-0.045310272,-0.657620528,Subject C,Focused
-0.006731853,0.175768139,-0.104373089,-0.037297205,-0.438684161,Subject C,Focused
-0.006762217,0.418956452,-0.065269663,0.018645363,-0.086473945,Subject C,Focused
-0.006791733,0.380962719,0.001977989,0.065968519,0.125219195,Subject C,Focused
-0.006820432,0.365870121,0.057347139,0.06327064,0.086145794,Subject C,Focused
-0.006848345,0.598652588,0.070379557,0.031546,-0.02575802,Subject C,Focused
-0.006875504,0.878982376,0.047695232,0.02428707,0.012261403,Subject C,Focused
-0.00690194,0.826037693,0.018459385,0.061293351,0.179668885,Subject C,Focused
-0.006927686,0.405047357,0.003957068,0.109094463,0.249618464,Subject C,Focused
-0.006952774,0.032642288,0.006000816,0.128319097,0.101519567,Subject C,Focused
-0.006977236,0.093029511,0.017257013,0.121184432,-0.091519929,Subject C,Focused
-0.007001105,0.464682854,0.032947308,0.116257922,-0.053488532,Subject C,Focused
-0.007024411,0.661509142,0.050036799,0.118005411,0.245019302,Subject C,Focused
-0.007047188,0.425053846,0.060470994,0.098221369,0.519158601,Subject C,Focused
-0.007069468,0.035150723,0.053880755,0.043904457,0.493498771,Subject C,Focused
-0.007091282,-0.048710165,0.031755966,-0.008627641,0.225557182,Subject C,Focused
-0.007112662,0.230126263,0.013763759,-0.008357678,0.014417858,Subject C,Focused
-0.007133639,0.449731707,0.019166299,0.04659427,0.00853333,Subject C,Focused
-0.007154244,0.244435353,0.040742424,0.097827158,0.035632531,Subject C,Focused
-0.007174508,-0.212490277,0.050215109,0.084656872,-0.106354105,Subject C,Focused
-0.00719446,-0.387292343,0.03685904,0.004833369,-0.296065615,Subject C,Focused
-0.007214131,-0.019993334,0.025359951,-0.085788992,-0.196774927,Subject C,Focused
-0.007233549,0.553756878,0.03688984,-0.126815479,0.264124929,Subject C,Focused
-0.007252746,0.779114133,0.042437964,-0.102148736,0.68961322,Subject C,Focused
-0.00727175,0.493296909,-0.016092282,-0.041056696,0.62598931,Subject C,Focused
-0.007290593,0.039212874,-0.151062351,0.019606833,0.114425032,Subject C,Focused
-0.007309305,-0.210453816,-0.29765914,0.065858574,-0.335882661,Subject C,Focused
-0.007327915,-0.275598592,-0.372127203,0.09868208,-0.344262609,Subject C,Focused
-0.007346453,-0.41558374,-0.349892032,0.110280216,-0.076517037,Subject C,Focused
-0.007364944,-0.678238613,-0.274647936,0.088255296,0.022529963,Subject C,Focused
-0.007383417,-0.806404098,-0.202009497,0.043941524,-0.197895142,Subject C,Focused
-0.007401895,-0.615960618,-0.152031379,0.014391907,-0.449468178,Subject C,Focused
-0.0074204,-0.2922588,-0.115793041,0.021110357,-0.424531199,Subject C,Focused
-0.007438953,-0.184107254,-0.090696835,0.038916327,-0.19534357,Subject C,Focused
-0.007457571,-0.375935495,-0.093589352,0.025322625,-0.082780264,Subject C,Focused
-0.007476271,-0.606396031,-0.135811978,-0.021592668,-0.207249408,Subject C,Focused
-0.007495066,-0.620232772,-0.192723224,-0.054931231,-0.337370862,Subject C,Focused
-0.007513967,-0.473693341,-0.210361009,-0.037123527,-0.226000588,Subject C,Focused
-0.007532986,-0.407978036,-0.152898587,0.008761163,0.035454069,Subject C,Focused
-0.007552129,-0.500268961,-0.0442543,0.024072467,0.122466186,Subject C,Focused
-0.007571404,-0.585342677,0.047956273,-0.01201508,-0.105436142,Subject C,Focused
-0.007590816,-0.53707411,0.077947849,-0.054874039,-0.42730993,Subject C,Focused
-0.007610369,-0.479915533,0.063850457,-0.05126468,-0.539865319,Subject C,Focused
-0.007630064,-0.603802249,0.055268589,-0.008555425,-0.418931571,Subject C,Focused
-0.007649903,-0.839483762,0.070909502,0.015378238,-0.313061226,Subject C,Focused
-0.007669883,-0.879867468,0.089180306,-0.011350647,-0.40608308,Subject C,Focused
-0.007690003,-0.567479813,0.095037955,-0.054910608,-0.585392749,Subject C,Focused
-0.007710258,-0.143424736,0.106349885,-0.064956931,-0.590073247,Subject C,Focused
-0.007730644,0.004645661,0.14166296,-0.041988743,-0.333553249,Subject C,Focused
-0.007751154,-0.188857584,0.183966209,-0.029853464,-0.000107442,Subject C,Focused
-0.007771784,-0.377112644,0.199646744,-0.04781361,0.183187044,Subject C,Focused
-0.007792527,-0.227040141,0.186816079,-0.059935247,0.198091269,Subject C,Focused
-0.007813375,0.1611335,0.182148572,-0.024938142,0.207301559,Subject C,Focused
-0.007834321,0.371975228,0.213331017,0.04216011,0.314272717,Subject C,Focused
-0.007855357,0.185616071,0.259538834,0.081228625,0.434536101,Subject C,Focused
-0.007876475,-0.161675353,0.271763123,0.058400756,0.430335526,Subject C,Focused
-0.007897665,-0.289619908,0.227560104,0.005643685,0.305811759,Subject C,Focused
-0.007918918,-0.152409939,0.154823404,-0.022058331,0.193014377,Subject C,Focused
-0.007940222,-0.06772971,0.101086379,-0.015412188,0.159866451,Subject C,Focused
-0.007961567,-0.261127538,0.087386514,-0.01595509,0.121853153,Subject C,Focused
-0.007982939,-0.530368507,0.095539395,-0.052868936,-0.014113458,Subject C,Focused
-0.008004326,-0.497370162,0.09523381,-0.097921924,-0.187027068,Subject C,Focused
-0.008025714,-0.136424446,0.076918478,-0.10099089,-0.247435983,Subject C,Focused
-0.008047085,0.140870439,0.056978253,-0.059614374,-0.166321802,Subject C,Focused
-0.008068425,0.004285388,0.054502936,-0.027665293,-0.083409126,Subject C,Focused
-0.008089715,-0.341108304,0.067992555,-0.047774398,-0.111219273,Subject C,Focused
-0.008110936,-0.394395572,0.078730154,-0.094564921,-0.16610608,Subject C,Focused
-0.00813207,-0.007938254,0.077280632,-0.103621508,-0.078576763,Subject C,Focused
-0.008153096,0.408050183,0.080748343,-0.051005066,0.150293958,Subject C,Focused
-0.008173994,0.408622177,0.115923342,0.01523957,0.300545231,Subject C,Focused
-0.008194742,0.079487411,0.185088718,0.029356327,0.182841859,Subject C,Focused
-0.008215317,-0.098633158,0.257480702,-0.017780729,-0.124339119,Subject C,Focused
-0.008235694,0.106840865,0.30029219,-0.071087234,-0.353610387,Subject C,Focused
-0.008255849,0.389255526,0.309809447,-0.076921624,-0.346530026,Subject C,Focused
-0.008275755,0.334374488,0.300494572,-0.043523829,-0.205393566,Subject C,Focused
-0.008295384,-0.016837076,0.272103089,-0.025850323,-0.128758083,Subject C,Focused
-0.008314707,-0.218919921,0.213596607,-0.055436817,-0.154286245,Subject C,Focused
-0.008333694,-0.005365277,0.144919315,-0.102156825,-0.133775966,Subject C,Focused
-0.008352316,0.370089254,0.12309926,-0.114117907,0.040018106,Subject C,Focused
-0.008370541,0.473436585,0.180157596,-0.082533209,0.258121295,Subject C,Focused
-0.008388338,0.248831416,0.27246787,-0.047711368,0.309037007,Subject C,Focused
-0.008405674,0.058591147,0.323018677,-0.042807825,0.145989683,Subject C,Focused
-0.00842252,0.172084486,0.307744058,-0.055383481,-0.036790509,Subject C,Focused
-0.008438843,0.401072675,0.269237755,-0.057149281,-0.034751931,Subject C,Focused
-0.008454615,0.363541952,0.243526137,-0.052358201,0.106220639,Subject C,Focused
-0.008469806,0.008689653,0.20807391,-0.070029339,0.135078159,Subject C,Focused
-0.008484385,-0.301388278,0.123929254,-0.111272806,-0.090448273,Subject C,Focused
-0.008498318,-0.25551768,0.00842272,-0.133313006,-0.408188692,Subject C,Focused
-0.008511579,0.01450416,-0.066222985,-0.101333704,-0.527536148,Subject C,Focused
-0.008524147,0.125066264,-0.049468204,-0.039563831,-0.360056962,Subject C,Focused
-0.008535996,-0.046363392,0.031573977,-0.008288569,-0.089341813,Subject C,Focused
-0.008547095,-0.207303151,0.1007491,-0.032465984,0.086532294,Subject C,Focused
-0.008557405,-0.053608606,0.107990105,-0.073437579,0.177695846,Subject C,Focused
-0.008566906,0.313785867,0.068341355,-0.079327062,0.305056993,Subject C,Focused
-0.008575599,0.515350423,0.030894156,-0.048833479,0.457938344,Subject C,Focused
-0.008583486,0.387968734,0.019521939,-0.028287147,0.474642408,Subject C,Focused
-0.008590518,0.185503058,0.01183576,-0.048338174,0.284407405,Subject C,Focused
-0.008596617,0.228004645,-0.023871672,-0.082947319,0.067857213,Subject C,Focused
-0.008601758,0.478464648,-0.0806086,-0.083809532,0.082361005,Subject C,Focused
-0.008606031,0.602790289,-0.113785676,-0.045496003,0.345304067,Subject C,Focused
-0.008609541,0.415750492,-0.092848144,-0.015538288,0.584664235,Subject C,Focused
-0.008612197,0.12050881,-0.040439318,-0.034446954,0.545826878,Subject C,Focused
-0.008613703,0.036650755,-0.008353597,-0.082982438,0.27912412,Subject C,Focused
-0.008613925,0.176012648,-0.018943126,-0.106045651,0.044652158,Subject C,Focused
-0.008613252,0.221455655,-0.044932199,-0.082870391,-0.02855061,Subject C,Focused
-0.008612294,-0.044891855,-0.048709618,-0.05229632,-0.069507511,Subject C,Focused
-0.008610902,-0.40472565,-0.024645579,-0.060165507,-0.222035588,Subject C,Focused
-0.008607821,-0.423972253,0.008345615,-0.097470545,-0.389348671,Subject C,Focused
-0.008602122,-0.000578739,0.041753085,-0.110549334,-0.340068488,Subject C,Focused
-0.008595208,0.457644901,0.082652623,-0.071857659,-0.043641631,Subject C,Focused
-0.008590103,0.503927259,0.124759449,-0.020891476,0.230114063,Subject C,Focused
-0.008587126,0.201693143,0.137673525,-0.020093676,0.212732028,Subject C,Focused
-0.008581063,0.022815013,0.100335235,-0.07616739,-0.034539646,Subject C,Focused
