timestamps,TP9,AF7,AF8,TP10,Subject,Emotion
-0.031773798,-0.579105808,0.529894143,-0.142657675,0.615767293,Subject B,neutral
-0.031893967,-0.016994926,0.612106559,-0.177234315,0.521830777,Subject B,neutral
-0.032009313,0.450354561,0.718572886,-0.237275009,-0.221015499,Subject B,neutral
-0.032119842,0.671290383,0.749755592,-0.247981665,-0.89854876,Subject B,neutral
-0.032225559,0.757120309,0.686964819,-0.202087486,-0.719910915,Subject B,neutral
-0.032326471,0.767404278,0.598077104,-0.152697213,0.235301803,Subject B,neutral
-0.032422583,0.664091804,0.55100657,-0.140988754,1.054522983,Subject B,neutral
-0.032513902,0.526953621,0.550218544,-0.154588936,1.004061321,Subject B,neutral
-0.032600433,0.584370829,0.56122202,-0.162171015,0.288793728,Subject B,neutral
-0.032682181,0.911288709,0.566778664,-0.1643252,-0.295103825,Subject B,neutral
-0.032759152,1.204957382,0.573306152,-0.18413514,-0.252861672,Subject B,neutral
-0.032831349,1.029659541,0.577305824,-0.215149096,0.259677215,Subject B,neutral
-0.032898777,0.342769039,0.562550236,-0.21302648,0.80447761,Subject B,neutral
-0.032961437,-0.300963137,0.537165969,-0.155192336,1.06649471,Subject B,neutral
-0.033019332,-0.218875991,0.540674967,-0.08559128,0.932608824,Subject B,neutral
-0.033072463,0.652975789,0.591441484,-0.070392227,0.493734232,Subject B,neutral
-0.033120832,1.585366771,0.646837576,-0.114013954,0.064885728,Subject B,neutral
-0.033164441,1.760691509,0.643720553,-0.148885731,-0.015521103,Subject B,neutral
-0.033203291,1.111800688,0.573250593,-0.119212273,0.286974764,Subject B,neutral
-0.033237384,0.342454289,0.494044941,-0.053246181,0.70804702,Subject B,neutral
-0.03326672,0.162610442,0.471366831,-0.030943277,1.042927719,Subject B,neutral
-0.033291301,0.653446244,0.517341003,-0.085649112,1.312257924,Subject B,neutral
-0.033311132,1.354211189,0.587377314,-0.158961207,1.508585928,Subject B,neutral
-0.033326214,1.752601078,0.617543545,-0.162697485,1.403601485,Subject B,neutral
-0.033336551,1.602342705,0.563448521,-0.076158129,0.810210859,Subject B,neutral
-0.033342148,0.955697579,0.423079868,0.031721965,-0.058798756,Subject B,neutral
-0.03334301,0.102608111,0.240186275,0.077617058,-0.695017216,Subject B,neutral
-0.033339141,-0.566329941,0.079922345,0.049954611,-0.75626125,Subject B,neutral
-0.033330547,-0.834856266,-0.018689345,0.012935694,-0.31242815,Subject B,neutral
-0.033317237,-0.842038357,-0.071402545,0.030033442,0.309814173,Subject B,neutral
-0.033299216,-0.875755792,-0.117735258,0.093807987,0.762292537,Subject B,neutral
-0.033276495,-0.993634293,-0.162020709,0.136387524,0.789249103,Subject B,neutral
-0.033249083,-1.000138984,-0.166860653,0.104644339,0.337297284,Subject B,neutral
-0.033216991,-0.811209196,-0.112348605,0.015345681,-0.326066048,Subject B,neutral
-0.033180234,-0.652454052,-0.036897405,-0.066544263,-0.720612166,Subject B,neutral
-0.033138827,-0.778358471,0.003371121,-0.093773774,-0.551640024,Subject B,neutral
-0.033092788,-1.089757452,0.004160662,-0.071171331,-0.027600415,Subject B,neutral
-0.033042135,-1.176030576,0.015509567,-0.031658087,0.317765985,Subject B,neutral
-0.032986891,-0.776547599,0.071696017,0.003210867,0.179086824,Subject B,neutral
-0.032927081,-0.1349402,0.141248248,0.030781854,-0.207155488,Subject B,neutral
-0.03286273,0.211871041,0.164229576,0.047811822,-0.380024359,Subject B,neutral
-0.032793868,0.037106402,0.129877347,0.042480068,-0.231077312,Subject B,neutral
-0.032720525,-0.301870672,0.093441973,0.012146272,-0.111800605,Subject B,neutral
-0.032642734,-0.330991614,0.107924379,-0.02213868,-0.319873815,Subject B,neutral
-0.032560532,-0.102977716,0.157315626,-0.033357465,-0.647368131,Subject B,neutral
-0.032473955,-0.125547335,0.177457982,-0.020659716,-0.632854864,Subject B,neutral
-0.032383044,-0.631486521,0.136665194,-0.010406457,-0.204569103,Subject B,neutral
-0.032287843,-1.194288595,0.07132366,-0.019297586,0.182521844,Subject B,neutral
-0.032188396,-1.23835541,0.033575654,-0.028858545,0.140160559,Subject B,neutral
-0.03208475,-0.761673352,0.024506118,-0.009780177,-0.147080232,Subject B,neutral
-0.031976956,-0.30922813,0.002433129,0.034765357,-0.222867507,Subject B,neutral
-0.031865063,-0.25621091,-0.048046765,0.067511667,-0.031841834,Subject B,neutral
-0.031749127,-0.371993996,-0.084909762,0.062775181,0.025870918,Subject B,neutral
-0.031629202,-0.23257498,-0.062258494,0.040038804,-0.243286027,Subject B,neutral
-0.031505347,0.116446346,0.005028098,0.039417276,-0.426296672,Subject B,neutral
-0.031377621,0.190619128,0.057965512,0.067972994,-0.02090536,Subject B,neutral
-0.031246086,-0.234345002,0.068129754,0.08737041,0.797968758,Subject B,neutral
-0.031110805,-0.728381862,0.063351308,0.064743474,1.275776396,Subject B,neutral
-0.030971843,-0.685121705,0.07286505,0.02299577,1.006950134,Subject B,neutral
-0.030829266,-0.067039898,0.080762604,0.017244188,0.469722123,Subject B,neutral
-0.03068314,0.516229792,0.056313486,0.059989977,0.417628462,Subject B,neutral
-0.030533534,0.479335277,0.006703748,0.096282208,0.923463272,Subject B,neutral
-0.030380517,-0.083812401,-0.029894797,0.070524033,1.328897597,Subject B,neutral
-0.030224159,-0.458935943,-0.033424384,0.000101953,1.104688536,Subject B,neutral
-0.03006453,-0.048830916,-0.019994637,-0.043118178,0.462807927,Subject B,neutral
-0.029901701,0.928555993,-0.017068282,-0.020370256,0.012646539,Subject B,neutral
-0.029735742,1.565321457,-0.039166559,0.029846162,0.021542775,Subject B,neutral
-0.029566724,1.208385226,-0.08087144,0.043017929,0.214666208,Subject B,neutral
-0.029394715,0.210406065,-0.116560328,0.005764409,0.241570627,Subject B,neutral
-0.029219784,-0.451969238,-0.114593522,-0.035703833,0.119318503,Subject B,neutral
-0.029041997,-0.277573802,-0.069275966,-0.038900409,0.107169082,Subject B,neutral
-0.028861419,0.292359653,-0.013661459,-0.017344548,0.27591906,Subject B,neutral
-0.02867811,0.556443098,0.01339598,-0.019393297,0.411786258,Subject B,neutral
-0.028492132,0.411851749,0.006286272,-0.064112729,0.35727255,Subject B,neutral
-0.028303545,0.308901315,-0.013462906,-0.114711976,0.249203438,Subject B,neutral
-0.028112404,0.521204235,-0.029981616,-0.119972769,0.312152269,Subject B,neutral
-0.027918764,0.789699925,-0.038740023,-0.070453661,0.544314565,Subject B,neutral
-0.027722672,0.751580498,-0.027343044,-0.003755876,0.74244475,Subject B,neutral
-0.027524184,0.485757271,0.019871263,0.039140727,0.78050809,Subject B,neutral
-0.027323353,0.42989884,0.089611805,0.049183941,0.739176186,Subject B,neutral
-0.027120232,0.796592327,0.134192404,0.041560273,0.749729208,Subject B,neutral
-0.02691486,1.24418279,0.115530401,0.028613521,0.795595294,Subject B,neutral
-0.026707271,1.225475225,0.04555948,0.011828718,0.736490991,Subject B,neutral
-0.026497511,0.615211107,-0.030352048,-0.005886072,0.522976946,Subject B,neutral
-0.026285649,-0.126433536,-0.083854097,-0.015911162,0.322599422,Subject B,neutral
-0.026071746,-0.459718914,-0.12314445,-0.018394603,0.369126222,Subject B,neutral
-0.025855817,-0.338288494,-0.163462979,-0.031808362,0.672433472,Subject B,neutral
-0.025637838,-0.165322627,-0.195630305,-0.074742924,0.925248614,Subject B,neutral
-0.02541784,-0.236808478,-0.198188444,-0.136079491,0.783508575,Subject B,neutral
-0.025195965,-0.413387349,-0.175951125,-0.175440862,0.277835573,Subject B,neutral
-0.024972365,-0.400014256,-0.166475831,-0.165967947,-0.142618976,Subject B,neutral
-0.024746999,-0.184265736,-0.195599451,-0.132747833,-0.088975167,Subject B,neutral
-0.024519614,-0.034934431,-0.237841686,-0.131674174,0.299644948,Subject B,neutral
-0.024290117,-0.118899923,-0.241961294,-0.184080232,0.523381435,Subject B,neutral
-0.024058942,-0.289668921,-0.197937281,-0.247217436,0.346387583,Subject B,neutral
-0.023826735,-0.310009111,-0.159908784,-0.263046725,0.065906332,Subject B,neutral
-0.02359338,-0.17907242,-0.189624636,-0.228004955,0.08414219,Subject B,neutral
-0.023357653,-0.133405087,-0.284358796,-0.197550083,0.375367408,Subject B,neutral
-0.023118655,-0.336229812,-0.373508342,-0.220146705,0.543361744,Subject B,neutral
-0.02287781,-0.649001676,-0.387188227,-0.279736171,0.356063721,Subject B,neutral
-0.022638165,-0.76356529,-0.320862427,-0.3117963,0.050851744,Subject B,neutral
-0.022400056,-0.55003221,-0.231687718,-0.272101055,0.040733405,Subject B,neutral
-0.022158288,-0.223199749,-0.180315022,-0.182484317,0.405111662,Subject B,neutral
-0.021907328,-0.116642116,-0.183461283,-0.108532669,0.788625067,Subject B,neutral
-0.021651481,-0.301720629,-0.21761874,-0.09830543,0.824617911,Subject B,neutral
-0.021405262,-0.499226451,-0.253184389,-0.147068796,0.57178641,Subject B,neutral
-0.021175068,-0.403226441,-0.275048013,-0.216445836,0.437476204,Subject B,neutral
-0.020939175,-0.030734214,-0.278026718,-0.275818253,0.675339599,Subject B,neutral
-0.020657207,0.319869837,-0.260033574,-0.320115376,1.061464466,Subject B,neutral
-0.020311096,0.420270185,-0.22707792,-0.356220502,1.147353482,Subject B,neutral
-0.019933647,0.323625936,-0.196286536,-0.38390603,0.790681257,Subject B,neutral
-0.019584772,0.215542015,-0.183465147,-0.392748594,0.32002714,Subject B,neutral
-0.019297275,0.165997322,-0.186152156,-0.374107629,0.146301239,Subject B,neutral
-0.019053089,0.126405313,-0.182398357,-0.334480068,0.323421834,Subject B,neutral
-0.018811836,0.121035915,-0.149245968,-0.296832299,0.57858001,Subject B,neutral
-0.01855179,0.285318665,-0.085677065,-0.285450239,0.685149857,Subject B,neutral
-0.018279346,0.641071552,-0.020268938,-0.30527185,0.661720094,Subject B,neutral
-0.018009017,0.939836602,0.005228405,-0.336206315,0.626280781,Subject B,neutral
-0.017745101,0.881347007,-0.033320192,-0.350369287,0.612572517,Subject B,neutral
-0.017482061,0.49217608,-0.119989694,-0.335299898,0.59843998,Subject B,neutral
-0.017214694,0.157745261,-0.204221065,-0.301380526,0.616497268,Subject B,neutral
-0.016943329,0.207066483,-0.234417286,-0.272583797,0.722671178,Subject B,neutral
-0.016671003,0.54095285,-0.196142673,-0.273092462,0.86464877,Subject B,neutral
-0.01639913,0.765475048,-0.122695311,-0.313433033,0.875424946,Subject B,neutral
-0.016126798,0.66655234,-0.066850668,-0.377340363,0.654323331,Subject B,neutral
-0.015852768,0.444701541,-0.058612279,-0.425558026,0.32552449,Subject B,neutral
-0.015576912,0.435889467,-0.087587976,-0.427310378,0.150622705,Subject B,neutral
-0.015299856,0.679991654,-0.123832068,-0.392023599,0.255054736,Subject B,neutral
-0.015022019,0.880413711,-0.152238813,-0.360169995,0.477075479,Subject B,neutral
-0.014743289,0.798701185,-0.181978475,-0.358821889,0.537198788,Subject B,neutral
-0.014463399,0.563954496,-0.222050327,-0.375045052,0.348958973,Subject B,neutral
-0.01418229,0.484999332,-0.258758449,-0.379076818,0.107537095,Subject B,neutral
-0.013900101,0.620076456,-0.271434326,-0.366964381,0.054904384,Subject B,neutral
-0.013616956,0.697403019,-0.267204037,-0.3695333,0.209256711,Subject B,neutral
-0.01333287,0.507647699,-0.280686215,-0.415301947,0.374709257,Subject B,neutral
-0.013047806,0.22897221,-0.331143657,-0.489977748,0.39653757,Subject B,neutral
-0.012761762,0.210273728,-0.394683085,-0.543398878,0.341978203,Subject B,neutral
-0.012474783,0.47770704,-0.43191551,-0.542206496,0.393909686,Subject B,neutral
-0.012186921,0.647887003,-0.433732859,-0.507980498,0.595038,Subject B,neutral
-0.011898205,0.414467566,-0.424126798,-0.491283022,0.763250231,Subject B,neutral
-0.011608651,-0.018311809,-0.422041527,-0.509698365,0.699423599,Subject B,neutral
-0.01131828,-0.155310103,-0.418944026,-0.526741976,0.444600057,Subject B,neutral
-0.011027126,0.1712051,-0.398905466,-0.500006653,0.255623069,Subject B,neutral
-0.010735228,0.580841936,-0.365854874,-0.438992434,0.305517836,Subject B,neutral
-0.010442621,0.611295476,-0.339420173,-0.39887881,0.476744467,Subject B,neutral
-0.010149337,0.276175722,-0.33003045,-0.416374118,0.512250908,Subject B,neutral
-0.009855409,0.011614272,-0.329185543,-0.467308388,0.328502412,Subject B,neutral
-0.009560874,0.099409767,-0.325464367,-0.498594649,0.092020479,Subject B,neutral
-0.00926577,0.316291096,-0.323521524,-0.492714557,-0.010209077,Subject B,neutral
-0.008970135,0.252392296,-0.34057379,-0.482355843,0.019736119,Subject B,neutral
-0.008674005,-0.130903334,-0.380750953,-0.499682789,0.054844427,Subject B,neutral
-0.008377419,-0.444278152,-0.416618478,-0.530838431,0.038794297,Subject B,neutral
-0.008080414,-0.38958749,-0.407849125,-0.536106399,0.028557177,Subject B,neutral
-0.007783031,-0.152378608,-0.346512314,-0.504845406,0.071065838,Subject B,neutral
-0.007485309,-0.127710263,-0.276264707,-0.469049721,0.138515712,Subject B,neutral
-0.007187289,-0.355729762,-0.252961253,-0.460169145,0.207585491,Subject B,neutral
-0.006889014,-0.464196407,-0.28737622,-0.470790929,0.317957018,Subject B,neutral
-0.006590524,-0.214872191,-0.338782241,-0.470605455,0.491685203,Subject B,neutral
-0.006291863,0.12132665,-0.363313428,-0.44967628,0.640262928,Subject B,neutral
-0.005993073,0.121159799,-0.352524619,-0.428688231,0.629183453,Subject B,neutral
-0.005694195,-0.181841782,-0.322246262,-0.42529908,0.445182938,Subject B,neutral
-0.005395271,-0.30272352,-0.284820408,-0.426627182,0.24864744,Subject B,neutral
-0.005096343,0.05102166,-0.247702029,-0.408069337,0.216296539,Subject B,neutral
-0.004797452,0.563959732,-0.225639612,-0.372393239,0.337515871,Subject B,neutral
-0.004498638,0.689949915,-0.230985934,-0.352255046,0.412659841,Subject B,neutral
-0.004199941,0.330252634,-0.251636858,-0.368988968,0.284790343,Subject B,neutral
-0.003901401,-0.055609339,-0.257997142,-0.402744872,0.039228043,Subject B,neutral
-0.003603058,-0.022637269,-0.240406124,-0.414996223,-0.089960014,Subject B,neutral
-0.003304952,0.339009567,-0.226587574,-0.393241906,-0.008940249,Subject B,neutral
-0.00300712,0.561348945,-0.248917291,-0.360508869,0.117094706,Subject B,neutral
-0.002709599,0.395527014,-0.300194137,-0.342991148,0.077107433,Subject B,neutral
-0.002412425,0.092452499,-0.336673787,-0.340817693,-0.111331011,Subject B,neutral
-0.002115636,0.043854118,-0.328065471,-0.334140185,-0.226069366,Subject B,neutral
-0.001819265,0.267640471,-0.293985327,-0.309912007,-0.137928309,Subject B,neutral
-0.001523347,0.397893611,-0.282699598,-0.275211406,0.006100715,Subject B,neutral
-0.001227915,0.181588264,-0.317761068,-0.244621187,-0.037681325,Subject B,neutral
-0.000933003,-0.169410211,-0.37396828,-0.222351814,-0.292620971,Subject B,neutral
-0.000638641,-0.234942406,-0.406230185,-0.20520015,-0.519443404,Subject B,neutral
-0.000344861,0.076523057,-0.393556374,-0.199037245,-0.505657433,Subject B,neutral
-5.17e-05,0.407159433,-0.348710372,-0.214808084,-0.314278188,Subject B,neutral
0.000240834,0.399755904,-0.291925951,-0.240393512,-0.186637622,Subject B,neutral
0.000532692,0.13106535,-0.231591763,-0.235037232,-0.248918656,Subject B,neutral
0.000823854,-0.024385715,-0.177368782,-0.174191378,-0.39557973,Subject B,neutral
0.001114291,0.101548241,-0.156498413,-0.093217277,-0.454730837,Subject B,neutral
0.001403974,0.269285235,-0.193749851,-0.059843836,-0.390691609,Subject B,neutral
0.001692873,0.180716391,-0.27164928,-0.096071334,-0.311264888,Subject B,neutral
0.001980959,-0.107541189,-0.329846338,-0.147866455,-0.320903247,Subject B,neutral
0.002268197,-0.265061672,-0.319928992,-0.145705749,-0.411400098,Subject B,neutral
0.002554556,-0.147599703,-0.254947453,-0.081283,-0.489016225,Subject B,neutral
0.002840001,-0.004593194,-0.190386098,-0.008534762,-0.479951154,Subject B,neutral
0.003124501,-0.138160066,-0.157739712,0.021523755,-0.397626411,Subject B,neutral
0.003408022,-0.467668932,-0.133687203,0.006853587,-0.313700007,Subject B,neutral
0.003690531,-0.605622178,-0.082411499,-0.022658075,-0.280634232,Subject B,neutral
0.003971995,-0.368809859,-0.012992614,-0.045475941,-0.29773243,Subject B,neutral
0.004252383,-0.039509421,0.02643263,-0.05726329,-0.341001391,Subject B,neutral
0.004531659,-0.0074521,0.012454915,-0.049338577,-0.389771929,Subject B,neutral
0.004809791,-0.264161662,-0.015789441,-0.000921334,-0.413210735,Subject B,neutral
0.005086743,-0.433540307,0.002775965,0.093605148,-0.374532282,Subject B,neutral
0.005362481,-0.298281236,0.081230895,0.198773022,-0.295692062,Subject B,neutral
0.005636965,-0.110640054,0.1717503,0.262256462,-0.30003529,Subject B,neutral
0.005910156,-0.271117606,0.221617541,0.274165385,-0.523511198,Subject B,neutral
0.006182014,-0.804065792,0.226081927,0.284641282,-0.95188863,Subject B,neutral
0.006452498,-1.318413185,0.220402525,0.343312125,-1.390135174,Subject B,neutral
0.006721565,-1.496593235,0.234938282,0.431072727,-1.650832469,Subject B,neutral
0.006989171,-1.47607139,0.272101514,0.478847115,-1.766150275,Subject B,neutral
0.007255274,-1.650142557,0.319280182,0.458665676,-1.964620317,Subject B,neutral
0.007519828,-2.173446964,0.364894954,0.430285799,-2.433259309,Subject B,neutral
0.007782788,-2.810606665,0.397308215,0.476427914,-3.146656671,Subject B,neutral
0.008044107,-3.283364995,0.403137119,0.60310034,-3.940710963,Subject B,neutral
0.008303741,-3.626972394,0.380433018,0.729264459,-4.699793187,Subject B,neutral
0.008561646,-4.095632688,0.349482083,0.778078125,-5.41918716,Subject B,neutral
0.008817775,-4.770380639,0.336016071,0.75753115,-6.097781702,Subject B,neutral
0.009072086,-5.401060391,0.337228514,0.739098787,-6.638333451,Subject B,neutral
0.009324534,-5.694260409,0.313613334,0.771351081,-6.914613978,Subject B,neutral
0.009575077,-5.678965717,0.228038252,0.834895229,-6.932876056,Subject B,neutral
0.009823671,-5.68129739,0.093766923,0.881733355,-6.862893278,Subject B,neutral
0.010070272,-5.931663525,-0.027874645,0.899133148,-6.865053393,Subject B,neutral
0.010314838,-6.286428641,-0.083006072,0.920281597,-6.9233433,Subject B,neutral
0.010557325,-6.406031401,-0.070619017,0.978583511,-6.909769145,Subject B,neutral
0.010797692,-6.17077898,-0.029251053,1.068729814,-6.792083997,Subject B,neutral
0.011035898,-5.823419617,0.009419316,1.160130306,-6.688104589,Subject B,neutral
0.011271903,-5.667832719,0.042084776,1.239625069,-6.686368236,Subject B,neutral
0.011505668,-5.70782484,0.074876885,1.326698355,-6.689794187,Subject B,neutral
0.011737156,-5.677584924,0.098298054,1.441592878,-6.50793367,Subject B,neutral
0.01196633,-5.40677264,0.090354699,1.566769258,-6.084420409,Subject B,neutral
0.012193155,-5.035409283,0.045082672,1.652229001,-5.576977684,Subject B,neutral
0.012417597,-4.800771346,-0.008391542,1.662690653,-5.195798583,Subject B,neutral
0.012639622,-4.691172008,-0.026688308,1.613235815,-4.981771526,Subject B,neutral
0.0128592,-4.447986345,0.000706681,1.552450305,-4.767368204,Subject B,neutral
0.0130763,-3.932051684,0.032612391,1.513244156,-4.370592437,Subject B,neutral
0.013290895,-3.356194378,0.018606467,1.488387705,-3.816713261,Subject B,neutral
0.013502958,-3.036444558,-0.039029022,1.4562152,-3.32976001,Subject B,neutral
0.013712465,-2.968406706,-0.079644094,1.419393273,-3.081316018,Subject B,neutral
0.01391939,-2.806004566,-0.046917358,1.40421627,-2.979436113,Subject B,neutral
0.014123712,-2.300721874,0.052798674,1.421732562,-2.757766358,Subject B,neutral
0.014325406,-1.632448264,0.161329529,1.445396075,-2.270013413,Subject B,neutral
0.01452445,-1.191701502,0.225698169,1.438981922,-1.638390255,Subject B,neutral
0.014720822,-1.098498939,0.232139945,1.399262822,-1.091795766,Subject B,neutral
0.014914498,-1.083005725,0.196208352,1.355576209,-0.721809641,Subject B,neutral
0.015105454,-0.856118843,0.14533646,1.326055421,-0.454373302,Subject B,neutral
0.015293668,-0.458113202,0.115579599,1.290636117,-0.212752503,Subject B,neutral
0.015479114,-0.144969784,0.141758088,1.219968933,-0.011368124,Subject B,neutral
0.015661769,-0.009846889,0.229139251,1.122439575,0.123202105,Subject B,neutral
0.015841605,0.135051256,0.337511222,1.043017115,0.237273203,Subject B,neutral
0.016018596,0.472749569,0.409861933,1.009897467,0.385837195,Subject B,neutral
0.016192715,0.898328547,0.425708338,0.996628077,0.51202808,Subject B,neutral
0.016363934,1.140180154,0.420269723,0.951343809,0.479270619,Subject B,neutral
0.016532224,1.137225276,0.442703187,0.859775337,0.268659824,Subject B,neutral
0.016697554,1.150799596,0.498665092,0.764979517,0.092699971,Subject B,neutral
0.016859893,1.421159811,0.543319011,0.719790513,0.226899541,Subject B,neutral
0.017019209,1.811636429,0.530777676,0.729297714,0.714629153,Subject B,neutral
0.017175471,1.949115188,0.46275275,0.74990813,1.302357186,Subject B,neutral
0.017328645,1.72020807,0.386788054,0.741309469,1.70203192,Subject B,neutral
0.017478702,1.472432937,0.350336481,0.705846047,1.869791628,Subject B,neutral
0.017625608,1.618305159,0.357489988,0.67045436,1.979457093,Subject B,neutral
0.017769332,2.120055467,0.370930161,0.641958481,2.165389498,Subject B,neutral
