timestamps,TP9,AF7,AF8,TP10,Subject,Emotion
-0.03635073,-5.520862542,1.236757266,-3.670702609,-6.001305041,Subject C,neutral
-0.03590083,-5.121198333,1.042722599,-3.151438988,-5.456249228,Subject C,neutral
-0.035443487,-5.130363194,0.930224201,-2.868178374,-5.204794651,Subject C,neutral
-0.03497881,-5.352172474,0.958259966,-3.081600059,-5.309335356,Subject C,neutral
-0.034506909,-5.205768237,1.036953467,-3.592916397,-5.330765917,Subject C,neutral
-0.034027899,-4.437154746,1.036461203,-3.975070969,-4.804974705,Subject C,neutral
-0.033541897,-3.43219254,0.9560635,-4.019014294,-3.796018476,Subject C,neutral
-0.033049022,-2.747887076,0.930452481,-3.862479478,-2.839193648,Subject C,neutral
-0.032549397,-2.478746607,1.04963125,-3.742144175,-2.349171823,Subject C,neutral
-0.032043149,-2.2417604,1.223804613,-3.740176519,-2.215402711,Subject C,neutral
-0.031530404,-1.725966583,1.269796944,-3.781255048,-2.021083563,Subject C,neutral
-0.031011294,-1.057642149,1.110844358,-3.78172802,-1.537939217,Subject C,neutral
-0.030485951,-0.553368043,0.859746205,-3.73757073,-0.887821105,Subject C,neutral
-0.029954509,-0.264552753,0.71037206,-3.691554333,-0.273345428,Subject C,neutral
-0.029417105,0.056622664,0.758236034,-3.668398138,0.281609832,Subject C,neutral
-0.028873876,0.558875786,0.920485756,-3.658389807,0.850074922,Subject C,neutral
-0.02832496,1.041174078,1.029114614,-3.643583475,1.368966713,Subject C,neutral
-0.027770497,1.214592604,1.004204482,-3.620021326,1.646107853,Subject C,neutral
-0.027210628,1.13118277,0.921741073,-3.595132996,1.635200062,Subject C,neutral
-0.026645499,1.178749885,0.902720304,-3.574645175,1.595372819,Subject C,neutral
-0.026075253,1.599562077,0.960102385,-3.557394251,1.863199028,Subject C,neutral
-0.025500039,2.15463721,0.98476049,-3.539652177,2.472617666,Subject C,neutral
-0.024920009,2.415169327,0.877648896,-3.520109457,3.095335678,Subject C,neutral
-0.024335315,2.334307041,0.669522148,-3.500199048,3.403784538,Subject C,neutral
-0.023746114,2.329851245,0.497983092,-3.481474058,3.429946486,Subject C,neutral
-0.023152563,2.724322044,0.473023953,-3.46375676,3.483394266,Subject C,neutral
-0.022554821,3.269714488,0.573360879,-3.445638104,3.738351895,Subject C,neutral
-0.021953051,3.420925175,0.675324068,-3.426298143,4.021320357,Subject C,neutral
-0.021347415,3.038152334,0.676149837,-3.4065093,4.070912556,Subject C,neutral
-0.02073808,2.599101176,0.581944796,-3.38777164,3.915658514,Subject C,neutral
-0.020125213,2.623069394,0.48318836,-3.370724308,3.853967698,Subject C,neutral
-0.019508984,3.042926043,0.466105189,-3.354678197,4.059228166,Subject C,neutral
-0.018889566,3.328614099,0.55443797,-3.338540034,4.346628441,Subject C,neutral
-0.01826713,3.183148052,0.710474019,-3.321796723,4.420493888,Subject C,neutral
-0.01764185,2.903272751,0.857795215,-3.304553922,4.273024189,Subject C,neutral
-0.017013902,2.960028354,0.90248311,-3.287042516,4.206210135,Subject C,neutral
-0.016383461,3.371757531,0.775194992,-3.269509409,4.444393619,Subject C,neutral
-0.015750706,3.684000333,0.501199755,-3.252505215,4.828544285,Subject C,neutral
-0.015115814,3.557376394,0.230536622,-3.236743202,4.976614612,Subject C,neutral
-0.014478964,3.18321792,0.146778034,-3.222301665,4.715224503,Subject C,neutral
-0.013840335,2.999404657,0.301073013,-3.20821232,4.260738102,Subject C,neutral
-0.013200106,3.104642489,0.547740273,-3.193377573,3.948433122,Subject C,neutral
-0.012558455,3.15376229,0.673036786,-3.17796411,3.867206109,Subject C,neutral
-0.011915561,2.865362634,0.581660614,-3.163345705,3.846807019,Subject C,neutral
-0.011271603,2.446914077,0.347086114,-3.150330168,3.762848268,Subject C,neutral
-0.01062676,2.346793517,0.114318693,-3.13791343,3.714696373,Subject C,neutral
-0.009981214,2.654996907,-0.00770849,-3.124394529,3.834870865,Subject C,neutral
-0.009335143,2.963401298,0.015949691,-3.10950105,4.020671112,Subject C,neutral
-0.008688729,2.884187166,0.150254684,-3.094706731,4.002904046,Subject C,neutral
-0.008042149,2.539946272,0.310325776,-3.08140761,3.695008052,Subject C,neutral
-0.007395583,2.380400256,0.408391179,-3.069489499,3.341758882,Subject C,neutral
-0.006749209,2.577617889,0.405567658,-3.057993006,3.223676835,Subject C,neutral
-0.006103201,2.798951975,0.316247365,-3.046504227,3.285138488,Subject C,neutral
-0.005457737,2.64983855,0.170151874,-3.035193989,3.198760931,Subject C,neutral
-0.004812988,2.201143959,-0.003813548,-3.023896373,2.813320425,Subject C,neutral
-0.004169126,1.908893007,-0.154755259,-3.012139244,2.39897665,Subject C,neutral
-0.00352632,2.028854648,-0.210553662,-3.000198423,2.342827336,Subject C,neutral
-0.002884737,2.291157943,-0.138051954,-2.989253935,2.666395043,Subject C,neutral
-0.00224454,2.263127248,0.004377391,-2.980003393,2.981451225,Subject C,neutral
-0.001605892,1.923298525,0.106218081,-2.971549179,2.945102486,Subject C,neutral
-0.000968951,1.68620246,0.10609498,-2.962119022,2.646264653,Subject C,neutral
-0.000333874,1.842054434,0.033446665,-2.950785808,2.455742345,Subject C,neutral
0.000299184,2.156201032,-0.056893975,-2.938325742,2.549913674,Subject C,neutral
0.000930072,2.167099272,-0.157338586,-2.926582273,2.705038227,Subject C,neutral
0.001558639,1.790895199,-0.283914835,-2.91708624,2.589940861,Subject C,neutral
0.002184738,1.425830993,-0.407337453,-2.90990945,2.160571405,Subject C,neutral
0.002808224,1.417894098,-0.464255974,-2.903499243,1.673979307,Subject C,neutral
0.003428953,1.609552756,-0.441513222,-2.895946181,1.356296757,Subject C,neutral
0.004046783,1.578939745,-0.397429291,-2.886955822,1.178549406,Subject C,neutral
0.004661572,1.236735214,-0.380163637,-2.878302353,0.998946218,Subject C,neutral
0.005273181,0.960214435,-0.371727541,-2.871499129,0.826667833,Subject C,neutral
0.005881468,1.073272401,-0.342891538,-2.865174411,0.821301654,Subject C,neutral
0.006486294,1.376678669,-0.320742339,-2.856325708,1.029180733,Subject C,neutral
0.007087521,1.383592254,-0.353196309,-2.84521504,1.244098151,Subject C,neutral
0.007685013,0.971499803,-0.425190106,-2.837381805,1.228185492,Subject C,neutral
0.008278637,0.573824816,-0.460858661,-2.837386246,1.016404254,Subject C,neutral
0.008868256,0.614630946,-0.41934466,-2.839740925,0.864840801,Subject C,neutral
0.009453732,0.908117754,-0.357510501,-2.831162095,0.869580981,Subject C,neutral
0.010034931,0.835747481,-0.376818648,-2.808610324,0.766944432,Subject C,neutral
0.010611729,0.107155864,-0.518190229,-2.792691966,0.225935123,Subject C,neutral
0.01118401,-0.870807332,-0.720070458,-2.808265815,-0.713300866,Subject C,neutral
0.011751647,-1.495547738,-0.868658012,-2.841653531,-1.629275432,Subject C,neutral
0.01231449,-1.701863543,-0.883809741,-2.834902774,-2.185286204,Subject C,neutral
0.012872396,-2.01590041,-0.78422478,-2.758197878,-2.517932316,Subject C,neutral
0.013425274,-2.899263565,-0.693746686,-2.689216341,-3.079953337,Subject C,neutral
0.013973068,-4.214780583,-0.756636333,-2.75634364,-4.123179629,Subject C,neutral
0.014515671,-5.438174042,-1.001208093,-2.939648952,-5.429776269,Subject C,neutral
0.015052867,-6.294090459,-1.291357087,-2.985250923,-6.590804454,Subject C,neutral
0.015584427,-6.998951367,-1.449588925,-2.687853992,-7.46255287,Subject C,neutral
0.016110321,-7.841411656,-1.429539457,-2.318526111,-8.230725093,Subject C,neutral
0.016630729,-8.716728402,-1.343018369,-2.518561312,-9.052612174,Subject C,neutral
0.017145673,-9.278937737,-1.329515669,-3.397792511,-9.810780303,Subject C,neutral
0.017654654,-9.486999233,-1.434389884,-3.77101234,-10.31287071,Subject C,neutral
0.018156959,-9.728939941,-1.602292423,-1.8707908,-10.60607816,Subject C,neutral
0.018652638,-10.29066096,-1.73562694,2.707925214,-10.91756408,Subject C,neutral
0.019142848,-10.89679991,-1.749192662,8.063672088,-11.30143488,Subject C,neutral
0.019628427,-11.00896974,-1.625012528,11.57097608,-11.52401946,Subject C,neutral
0.020107885,-10.53470761,-1.454448223,12.30257178,-11.38596358,Subject C,neutral
0.020578115,-9.994941018,-1.387821928,11.38422725,-11.03302174,Subject C,neutral
0.021038718,-9.887976391,-1.484367698,10.33580698,-10.79256901,Subject C,neutral
0.021494833,-10.07196242,-1.624098996,10.03184539,-10.74236103,Subject C,neutral
0.021951934,-9.981749379,-1.625392977,11.04428329,-10.61305284,Subject C,neutral
0.022405663,-9.382604905,-1.453792184,13.6075615,-10.16440995,Subject C,neutral
0.02284145,-8.657365134,-1.259687066,16.86485477,-9.521099259,Subject C,neutral
0.023252848,-8.279865301,-1.193805476,19.16314812,-9.029703421,Subject C,neutral
0.023661533,-8.218553192,-1.24110261,19.62256788,-8.849729731,Subject C,neutral
0.024107834,-8.055261312,-1.272227355,18.92357964,-8.798110991,Subject C,neutral
0.024609779,-7.603234366,-1.213173417,18.32916675,-8.590289994,Subject C,neutral
0.025134521,-7.163895358,-1.107155563,18.37298721,-8.146836377,Subject C,neutral
0.025622113,-7.093586618,-1.024122144,18.70726832,-7.632884919,Subject C,neutral
0.026039718,-7.279601329,-0.968986042,18.85526904,-7.244879754,Subject C,neutral
0.026405373,-7.227186987,-0.902987579,18.74915472,-7.004021879,Subject C,neutral
0.026759429,-6.655749545,-0.822930223,18.60987306,-6.764664779,Subject C,neutral
0.027123588,-5.851403214,-0.777901676,18.58905486,-6.41052767,Subject C,neutral
0.027491435,-5.333938357,-0.805276564,18.64848056,-6.007046086,Subject C,neutral
0.027848439,-5.252047689,-0.881019025,18.69041623,-5.713816779,Subject C,neutral
0.028190285,-5.244934735,-0.949808699,18.68348528,-5.553252445,Subject C,neutral
0.028522497,-4.915447154,-0.984917111,18.65396245,-5.347186022,Subject C,neutral
0.028850266,-4.307249379,-0.999393179,18.62479811,-4.935310016,Subject C,neutral
0.02917325,-3.800694463,-1.012779925,18.60598837,-4.390234899,Subject C,neutral
0.029488407,-3.591711638,-1.030084148,18.61652055,-3.918124235,Subject C,neutral
0.029794315,-3.439350613,-1.048730211,18.66321097,-3.571080943,Subject C,neutral
0.030091883,-3.00315125,-1.066455344,18.69344505,-3.18440135,Subject C,neutral
0.030382349,-2.316494509,-1.081438384,18.62818823,-2.641247227,Subject C,neutral
0.030665843,-1.760434987,-1.097792567,18.49293743,-2.08010232,Subject C,neutral
0.030941741,-1.557262589,-1.130332033,18.46749364,-1.716750415,Subject C,neutral
0.031209636,-1.447601772,-1.191427747,18.67973776,-1.50645944,Subject C,neutral
0.03146965,-0.99366999,-1.27191373,18.9189332,-1.133094445,Subject C,neutral
0.031722067,-0.131255248,-1.34335039,18.74682026,-0.382255807,Subject C,neutral
0.031966964,0.750265464,-1.377736224,18.1306266,0.577870344,Subject C,neutral
0.032204228,1.312560294,-1.359778578,17.84534708,1.381892683,Subject C,neutral
0.03243376,1.694666337,-1.292729331,18.70609168,1.891763794,Subject C,neutral
0.032655575,2.290396311,-1.211903967,20.08187634,2.330660959,Subject C,neutral
0.032869743,3.174259639,-1.182846129,19.76177874,2.97297263,Subject C,neutral
0.0330763,3.966251166,-1.251807169,16.32167699,3.795083754,Subject C,neutral
0.033275237,4.344912888,-1.388101048,11.63951082,4.525070606,Subject C,neutral
0.033466541,4.518060582,-1.503538045,9.751842783,5.011822699,Subject C,neutral
0.033650225,4.987668718,-1.545965508,12.34358926,5.428649549,Subject C,neutral
0.033826318,5.897700142,-1.550135125,16.27017666,6.044894184,Subject C,neutral
0.033994847,6.829645456,-1.574686778,16.80210174,6.860253423,Subject C,neutral
0.034155828,7.316509318,-1.611336413,12.96420692,7.580317099,Subject C,neutral
0.034309279,7.399146065,-1.59037053,8.453802843,7.97624068,Subject C,neutral
0.034455223,7.520036144,-1.47028218,7.322388152,8.173656592,Subject C,neutral
0.034593689,7.934921567,-1.291933346,9.870492354,8.500185687,Subject C,neutral
0.034724709,8.421558441,-1.13863353,12.99518703,9.078759327,Subject C,neutral
0.034848314,8.627039677,-1.061275424,13.54828676,9.669745043,Subject C,neutral
0.034964538,8.552831029,-1.047706858,10.86569337,9.948578701,Subject C,neutral
0.035073417,8.530358787,-1.051099442,6.759941625,9.869619278,Subject C,neutral
0.035174991,8.737179874,-1.039141925,3.730399989,9.676654699,Subject C,neutral
0.035269302,8.918495703,-1.017485865,2.935751103,9.574602344,Subject C,neutral
0.035356393,8.713862819,-1.007375648,3.442382852,9.498829467,Subject C,neutral
0.035436311,8.175823358,-1.008765938,3.435240263,9.26691356,Subject C,neutral
0.035509104,7.770128107,-1.004611141,2.225623087,8.872740167,Subject C,neutral
0.035574821,7.805822571,-1.003239225,0.824697579,8.500056836,Subject C,neutral
0.035633515,8.024469395,-1.041982425,0.42357273,8.248577189,Subject C,neutral
0.035685241,7.911179997,-1.1216706,0.755537496,7.986045948,Subject C,neutral
0.035730056,7.346335533,-1.166005401,0.48959497,7.554153144,Subject C,neutral
0.035768017,6.753538759,-1.092967722,-0.915252506,7.033426066,Subject C,neutral
0.035799185,6.558137332,-0.921023447,-2.428236514,6.676381617,Subject C,neutral
0.03582362,6.672906243,-0.762097833,-2.775426941,6.590681352,Subject C,neutral
0.035841388,6.667163676,-0.703268941,-2.061569741,6.610155194,Subject C,neutral
0.035852553,6.356273264,-0.727827863,-1.560547913,6.522830973,Subject C,neutral
0.035857182,6.012922091,-0.76034047,-2.060942036,6.325783607,Subject C,neutral
0.035855343,5.940734906,-0.758315278,-2.974596143,6.158213881,Subject C,neutral
0.035847107,6.013754195,-0.741456879,-3.244789868,6.037681642,Subject C,neutral
0.035832543,5.82204764,-0.749736377,-2.724002731,5.804333802,Subject C,neutral
0.035811723,5.240126985,-0.795711976,-2.246478859,5.369114397,Subject C,neutral
0.035784717,4.649842267,-0.856640254,-2.44360193,4.911450779,Subject C,neutral
0.035751597,4.487619482,-0.899269845,-2.935172811,4.720296859,Subject C,neutral
0.035712435,4.683905372,-0.90656781,-2.916591055,4.854876797,Subject C,neutral
0.035667302,4.732908678,-0.884079041,-2.287536715,5.059112233,Subject C,neutral
0.03561627,4.327126481,-0.845918905,-1.808554869,5.050522065,Subject C,neutral
0.035559411,3.75128284,-0.799322693,-2.122018903,4.829679625,Subject C,neutral
0.035496798,3.522629536,-0.74525402,-2.959543406,4.631039702,Subject C,neutral
0.035428503,3.72681892,-0.69231595,-3.521700732,4.5891558,Subject C,neutral
0.035354598,3.900286162,-0.664377783,-3.444257921,4.550861317,Subject C,neutral
0.035275155,3.62101449,-0.685387355,-3.110009734,4.279736206,Subject C,neutral
0.035190247,3.052875253,-0.748917744,-3.041819373,3.802497129,Subject C,neutral
0.035099946,2.733133285,-0.807505981,-3.265639707,3.444315564,Subject C,neutral
0.035004321,2.872701216,-0.807850388,-3.412037453,3.459263371,Subject C,neutral
0.034903444,3.084215254,-0.742637229,-3.286632221,3.683506741,Subject C,neutral
0.034797385,2.891740839,-0.657102191,-3.109710052,3.66970936,Subject C,neutral
0.034686216,2.338838233,-0.599404121,-3.176641809,3.18928264,Subject C,neutral
0.034570006,1.892210545,-0.576982774,-3.463003352,2.497380246,Subject C,neutral
0.034448827,1.796583956,-0.569974901,-3.688564958,2.019043718,Subject C,neutral
0.034322749,1.767743296,-0.574003101,-3.700363853,1.847321129,Subject C,neutral
0.034191844,1.428753683,-0.611314953,-3.648429605,1.686294464,Subject C,neutral
0.034056184,0.871844805,-0.69830243,-3.738075777,1.28624845,Subject C,neutral
0.033915841,0.560438157,-0.813421078,-3.896055672,0.785032161,Subject C,neutral
0.033770887,0.690855647,-0.905886171,-3.817866213,0.521028976,Subject C,neutral
0.033621395,0.879575951,-0.936915469,-3.400885756,0.584236946,Subject C,neutral
0.033467438,0.624374638,-0.909353041,-3.006294207,0.695268598,Subject C,neutral
0.03330909,-0.039513994,-0.855134844,-3.077387551,0.560769111,Subject C,neutral
0.033146425,-0.545961528,-0.795539383,-3.480053197,0.237186174,Subject C,neutral
0.032979516,-0.482613559,-0.716535653,-3.508317926,0.029467308,Subject C,neutral
0.032808438,-0.097332703,-0.58638313,-2.784312046,0.061315985,Subject C,neutral
0.032633264,0.001562705,-0.401671437,-1.955912039,0.084844648,Subject C,neutral
0.032454067,-0.445517276,-0.213486388,-2.069254376,-0.220836009,Subject C,neutral
0.032270922,-1.120392954,-0.094677857,-3.174694726,-0.855385125,Subject C,neutral
0.032083903,-1.6190257,-0.073421494,-3.977996995,-1.518390069,Subject C,neutral
0.031893083,-1.988761827,-0.110526944,-3.246725703,-2.013716992,Subject C,neutral
0.031698536,-2.623717549,-0.152717588,-1.382001522,-2.514133227,Subject C,neutral
0.031500334,-3.689456916,-0.192857852,-0.089595042,-3.337077125,Subject C,neutral
0.03129855,-4.844049568,-0.256131955,-0.363085944,-4.495693567,Subject C,neutral
0.031093257,-5.60939402,-0.338651412,-1.282484569,-5.586507166,Subject C,neutral
0.030884524,-5.895895289,-0.397134458,-1.26860231,-6.180600595,Subject C,neutral
0.030672423,-6.012969307,-0.412102162,-0.235309677,-6.2670779,Subject C,neutral
0.030457024,-6.200577018,-0.430052514,0.23670881,-6.219371374,Subject C,neutral
0.030238396,-6.33013095,-0.508204173,-0.964243507,-6.330369344,Subject C,neutral
0.030016608,-6.147781081,-0.624962837,-2.837839933,-6.488576031,Subject C,neutral
0.029791725,-5.683432741,-0.685030951,-3.378818483,-6.379658447,Subject C,neutral
0.029563816,-5.236285014,-0.630982458,-2.080664451,-5.91601858,Subject C,neutral
0.029332944,-4.937508348,-0.520387131,-0.592377495,-5.305113996,Subject C,neutral
0.029099173,-4.497477694,-0.460591757,-0.669300643,-4.685282927,Subject C,neutral
0.028862566,-3.549932625,-0.485095831,-2.07045868,-3.896635803,Subject C,neutral
0.028623182,-2.209206854,-0.537609449,-3.049044536,-2.779655605,Subject C,neutral
0.028381081,-1.088907744,-0.575910697,-2.654885032,-1.592706423,Subject C,neutral
0.02813632,-0.657119152,-0.637898327,-1.824812668,-0.872291847,Subject C,neutral
0.027888959,-0.690304702,-0.77391938,-2.007679359,-0.803878786,Subject C,neutral
0.027639052,-0.54133756,-0.946574585,-3.284076178,-0.924340334,Subject C,neutral
0.027386655,0.081750949,-1.045909501,-4.380777855,-0.619687801,Subject C,neutral
0.027131822,0.807750188,-1.008255415,-4.361536328,0.172748015,Subject C,neutral
0.026874608,1.139591899,-0.887985467,-3.696574017,0.948385584,Subject C,neutral
0.026615066,1.103394345,-0.792188303,-3.424399663,1.296035276,Subject C,neutral
0.026353246,1.160795131,-0.760663158,-3.685613296,1.354937619,Subject C,neutral
0.026089202,1.554252332,-0.737428371,-3.651449918,1.523101821,Subject C,neutral
0.025822984,2.00000261,-0.660388159,-2.880603122,1.891350868,Subject C,neutral
0.025554644,2.123496112,-0.549583722,-2.126463209,2.170957861,Subject C,neutral
0.025284232,2.004768591,-0.484947612,-2.38052515,2.14198418,Subject C,neutral
0.0250118,2.073252248,-0.508793045,-3.458298739,1.966012524,Subject C,neutral
0.024737398,2.498995445,-0.577887082,-4.137627043,1.958775486,Subject C,neutral
0.024461077,2.915343978,-0.617947781,-3.710658592,2.164212822,Subject C,neutral
0.02418289,2.862045452,-0.603241287,-2.866283833,2.304000699,Subject C,neutral
0.023902887,2.376392539,-0.565410109,-2.786255421,2.156179647,Subject C,neutral
0.023621121,1.962472736,-0.538951002,-3.730215655,1.860682022,Subject C,neutral
0.023337645,1.977979017,-0.524301107,-4.878511468,1.75400848,Subject C,neutral
0.023052514,2.222599338,-0.504365002,-5.39496605,1.941315352,Subject C,neutral
0.022765784,2.235825237,-0.473809289,-5.2479731,2.153456715,Subject C,neutral
0.02247751,1.89705406,-0.441117676,-4.969125666,2.081265558,Subject C,neutral
0.022187753,1.553576338,-0.415428805,-4.9405749,1.769636716,Subject C,neutral
0.02189657,1.537461866,-0.404090109,-5.108914336,1.567845704,Subject C,neutral
0.021604024,1.729468802,-0.414614923,-5.244266479,1.698089558,Subject C,neutral
0.021310175,1.74804841,-0.442679767,-5.255008352,1.995222904,Subject C,neutral
0.021015087,1.496584915,-0.458800877,-5.218799118,2.137564691,Subject C,neutral
0.020718822,1.315739723,-0.424721431,-5.226781726,2.04330683,Subject C,neutral
0.020421447,1.517327036,-0.334533959,-5.284066783,1.915742149,Subject C,neutral
0.020123026,1.923306928,-0.23020068,-5.342934816,1.919057031,Subject C,neutral
0.019823626,2.05465291,-0.159877838,-5.37545875,1.953439034,Subject C,neutral
0.019523315,1.753240522,-0.120344354,-5.393732517,1.826116944,Subject C,neutral
0.01922216,1.414860737,-0.056304461,-5.420100008,1.557799473,Subject C,neutral
0.01892023,1.497503553,0.073335508,-5.45957767,1.388248076,Subject C,neutral
0.018617592,1.92978872,0.236322445,-5.501619755,1.46432721,Subject C,neutral
0.018314315,2.195418464,0.347860222,-5.537030806,1.631701901,Subject C,neutral
0.018010466,1.988156898,0.354549702,-5.566739325,1.625174364,Subject C,neutral
0.017706112,1.584000133,0.289258933,-5.597097387,1.420085752,Subject C,neutral
0.017401319,1.454269536,0.232025896,-5.631835814,1.267714584,Subject C,neutral
