timestamps,TP9,AF7,AF8,TP10,Subject,Emotion
0.036678296,-0.134249254,0.19361198,-0.882687736,-0.299515765,Subject B,neutral
0.036725551,0.111409493,0.1492638,-0.84059098,-0.146344278,Subject B,neutral
0.036767224,0.300333926,0.101339001,-0.743111353,0.055356778,Subject B,neutral
0.036803237,0.269291816,0.10491347,-0.70663356,0.132292467,Subject B,neutral
0.036833512,0.226083151,0.211980718,-0.761613418,0.052411316,Subject B,neutral
0.036857977,0.406917123,0.370188796,-0.813281827,-0.075363353,Subject B,neutral
0.036876556,0.692003808,0.448577479,-0.769214407,-0.159615087,Subject B,neutral
0.036889178,0.719531913,0.379032778,-0.664922165,-0.226398139,Subject B,neutral
0.036895771,0.37205976,0.233533038,-0.618861357,-0.330758884,Subject B,neutral
0.036896264,-0.004061559,0.141040274,-0.685757515,-0.420416981,Subject B,neutral
0.036890587,0.029840099,0.154562839,-0.803228512,-0.370320372,Subject B,neutral
0.036878673,0.479239358,0.223449394,-0.878543595,-0.166953775,Subject B,neutral
0.036860453,0.898702085,0.276372089,-0.882392715,0.014607548,Subject B,neutral
0.03683586,0.914486285,0.297662578,-0.844973738,-0.015939989,Subject B,neutral
0.036804829,0.636761979,0.321097747,-0.796734053,-0.236321414,Subject B,neutral
0.036767298,0.466315977,0.373327971,-0.745266861,-0.425644425,Subject B,neutral
0.036723204,0.581626202,0.435501964,-0.700888987,-0.412937282,Subject B,neutral
0.036672485,0.767683861,0.45588644,-0.69195387,-0.248072756,Subject B,neutral
0.036615082,0.759158861,0.403055108,-0.73674593,-0.097891875,Subject B,neutral
0.036550933,0.601247402,0.314661917,-0.811015747,-0.038417963,Subject B,neutral
0.03647998,0.552318533,0.281343944,-0.86299226,-0.020430656,Subject B,neutral
0.036402166,0.693043943,0.356552501,-0.863669208,-0.009592091,Subject B,neutral
0.036317432,0.797252827,0.481218984,-0.834353893,-0.062202252,Subject B,neutral
0.036225721,0.647571609,0.525239061,-0.827641431,-0.223101825,Subject B,neutral
0.036126979,0.356257694,0.419055532,-0.886971598,-0.412203107,Subject B,neutral
0.036021152,0.230088036,0.229340028,-1.009352647,-0.48861078,Subject B,neutral
0.035908188,0.343632632,0.089039044,-1.130777518,-0.420822439,Subject B,neutral
0.035788036,0.413074788,0.060847137,-1.168102115,-0.323818116,Subject B,neutral
0.035660648,0.177520044,0.084301007,-1.106745285,-0.294901419,Subject B,neutral
0.035525975,-0.214669871,0.053682677,-1.033861442,-0.264283484,Subject B,neutral
0.035383972,-0.36047878,-0.065747225,-1.047607002,-0.075497021,Subject B,neutral
0.035234592,-0.117242719,-0.200215926,-1.139796819,0.293249092,Subject B,neutral
0.035077793,0.203069399,-0.238962991,-1.206436488,0.653487668,Subject B,neutral
0.034913532,0.216452942,-0.145605385,-1.173383518,0.782780002,Subject B,neutral
0.03474177,-0.072473857,-0.001272315,-1.073178881,0.64629709,Subject B,neutral
0.034562469,-0.302668428,0.072655042,-0.991091561,0.416124384,Subject B,neutral
0.034375593,-0.209039133,0.039344134,-0.970529054,0.286109079,Subject B,neutral
0.03418111,0.070691402,-0.020800047,-0.988463222,0.290232363,Subject B,neutral
0.033978988,0.184909396,-0.01045759,-1.000575967,0.301539008,Subject B,neutral
0.033769196,0.004675706,0.073078515,-0.987275668,0.1950331,Subject B,neutral
0.033551708,-0.228663189,0.149502157,-0.959042631,-0.002934191,Subject B,neutral
0.033326498,-0.233492492,0.166106412,-0.933455054,-0.135935677,Subject B,neutral
0.033093544,-0.073826001,0.164242433,-0.917130532,-0.076358426,Subject B,neutral
0.032852823,-0.069728308,0.224141698,-0.906334645,0.162045805,Subject B,neutral
0.032604314,-0.323191891,0.361550588,-0.893589443,0.465186079,Subject B,neutral
0.032347999,-0.517748873,0.499204827,-0.870397101,0.723621282,Subject B,neutral
0.032083863,-0.320150113,0.540667224,-0.83396699,0.868135517,Subject B,neutral
0.03181189,0.133389348,0.45863018,-0.798799902,0.849243509,Subject B,neutral
0.031532068,0.356007356,0.307166625,-0.792198718,0.661498645,Subject B,neutral
0.031244389,0.119206852,0.164215642,-0.823119934,0.399448185,Subject B,neutral
0.030948847,-0.254738048,0.076435154,-0.854950181,0.217888529,Subject B,neutral
0.030645439,-0.320711778,0.046058683,-0.824315339,0.184543186,Subject B,neutral
0.030334163,-0.092084841,0.044238606,-0.698861811,0.207002691,Subject B,neutral
0.030015023,0.000166448,0.034571802,-0.513422818,0.155677101,Subject B,neutral
0.029688024,-0.291278052,0.003145601,-0.342389596,0.038289539,Subject B,neutral
0.029353174,-0.672412464,-0.029517901,-0.24098887,-7.38e-06,Subject B,neutral
0.029010487,-0.664141845,-0.037520168,-0.220526253,0.145801364,Subject B,neutral
0.028659978,-0.206307219,-0.025341329,-0.2686513,0.395819944,Subject B,neutral
0.028301665,0.265497879,-0.015977523,-0.367511824,0.535732919,Subject B,neutral
0.027935571,0.354801609,-0.008931453,-0.485519934,0.414460296,Subject B,neutral
0.02756172,0.159954584,0.021436273,-0.575671657,0.096902912,Subject B,neutral
0.02718014,0.088664547,0.078555323,-0.606273518,-0.18492089,Subject B,neutral
0.026790862,0.303685547,0.120330571,-0.59259124,-0.251710942,Subject B,neutral
0.026393917,0.523217531,0.101509508,-0.58566757,-0.146205544,Subject B,neutral
0.025989343,0.41516668,0.029801688,-0.625192473,-0.053883881,Subject B,neutral
0.025577178,0.05687423,-0.030702649,-0.704212247,-0.059060411,Subject B,neutral
0.025157464,-0.140999803,-0.007743695,-0.778636948,-0.044154316,Subject B,neutral
0.024730247,0.048234373,0.123584483,-0.808996235,0.13201673,Subject B,neutral
0.024295574,0.374767551,0.311661752,-0.794031504,0.418713857,Subject B,neutral
0.023853496,0.427020165,0.444707845,-0.769161872,0.6141786,Subject B,neutral
0.023404068,0.154799981,0.419927166,-0.778223868,0.602235745,Subject B,neutral
0.022947348,-0.073815134,0.2325045,-0.84576351,0.473435086,Subject B,neutral
0.022483396,0.043734373,0.007743423,-0.967810061,0.398913156,Subject B,neutral
0.022012278,0.352655764,-0.078978666,-1.119068408,0.436235885,Subject B,neutral
0.021534058,0.450633164,0.050043507,-1.262932937,0.486434398,Subject B,neutral
0.021048808,0.209966447,0.292510046,-1.35824293,0.419561742,Subject B,neutral
0.020556602,-0.077954957,0.444666494,-1.3736632,0.218055946,Subject B,neutral
0.020057517,-0.096463433,0.379761002,-1.315492035,-0.007658476,Subject B,neutral
0.019551638,0.115323947,0.154827384,-1.243087338,-0.135648614,Subject B,neutral
0.019039044,0.27597787,-0.054034689,-1.236465359,-0.141719924,Subject B,neutral
0.018519816,0.25633015,-0.111715193,-1.327028728,-0.080160767,Subject B,neutral
0.017994039,0.203014064,-0.023301463,-1.458858756,0.010525921,Subject B,neutral
0.017461812,0.266355732,0.098842331,-1.533858726,0.130926056,Subject B,neutral
0.016923238,0.354146806,0.143904587,-1.504984254,0.254667417,Subject B,neutral
0.016378412,0.264872793,0.089612488,-1.420635555,0.300643161,Subject B,neutral
0.015827406,0.011320025,0.010567532,-1.375110288,0.209969864,Subject B,neutral
0.015270301,-0.1277167,0.009667133,-1.42407173,0.031655386,Subject B,neutral
0.014707229,0.062141483,0.124901515,-1.549795342,-0.100951369,Subject B,neutral
0.014138356,0.422717759,0.28993355,-1.690163209,-0.08969569,Subject B,neutral
0.013563803,0.551149028,0.388810298,-1.783673737,0.037759835,Subject B,neutral
0.012983577,0.25344386,0.356128747,-1.797827697,0.171082251,Subject B,neutral
0.012397676,-0.206512296,0.227946532,-1.745731914,0.256231418,Subject B,neutral
0.011806295,-0.384082763,0.101548024,-1.68715979,0.35465525,Subject B,neutral
0.011209838,-0.156885385,0.050944979,-1.690906798,0.518863153,Subject B,neutral
0.010608551,0.147465296,0.074940948,-1.771910397,0.645739898,Subject B,neutral
0.010002155,0.169033228,0.111573582,-1.869029718,0.554235159,Subject B,neutral
0.009390158,-0.038110495,0.095183063,-1.901661458,0.231681072,Subject B,neutral
0.008772827,-0.108211682,0.009813236,-1.850237839,-0.093150283,Subject B,neutral
0.008151536,0.119794391,-0.095477446,-1.770116612,-0.192245019,Subject B,neutral
0.007527339,0.374414143,-0.139950696,-1.726359219,-0.092070173,Subject B,neutral
0.006898957,0.330691556,-0.074679861,-1.731385193,0.004136855,Subject B,neutral
0.006263497,0.068740538,0.072362107,-1.755659676,0.014626949,Subject B,neutral
0.00562077,-0.036131088,0.217470905,-1.782059003,0.078551795,Subject B,neutral
0.004976123,0.157925642,0.297352566,-1.822857769,0.318361741,Subject B,neutral
0.004335243,0.355495257,0.318802204,-1.879926269,0.605101426,Subject B,neutral
0.003693979,0.238098474,0.318634558,-1.912944537,0.672270045,Subject B,neutral
0.003037968,-0.073354174,0.285359024,-1.871052742,0.449110151,Subject B,neutral
0.002360969,-0.153794063,0.161855411,-1.755545467,0.177827719,Subject B,neutral
0.00168486,0.162555042,-0.050943036,-1.633326931,0.151448603,Subject B,neutral
0.001050174,0.551554337,-0.227911576,-1.575908449,0.39186935,Subject B,neutral
0.000475135,0.616875282,-0.215108502,-1.589686576,0.653021057,Subject B,neutral
-7.29e-05,0.391635731,-0.000451872,-1.619132145,0.719791653,Subject B,neutral
-0.000653701,0.25244986,0.255388869,-1.620345604,0.621886197,Subject B,neutral
-0.001299899,0.382417734,0.381478433,-1.614922012,0.521327561,Subject B,neutral
-0.001993274,0.522525457,0.354642604,-1.656207374,0.459897252,Subject B,neutral
-0.002693287,0.339465324,0.270314454,-1.751410514,0.315081083,Subject B,neutral
-0.003378054,-0.093706502,0.200988995,-1.840380242,0.010710997,Subject B,neutral
-0.004053808,-0.344214607,0.141351105,-1.859896434,-0.324840987,Subject B,neutral
-0.004734904,-0.140853618,0.077202666,-1.815878346,-0.484601617,Subject B,neutral
-0.005425481,0.281620763,0.038437153,-1.777245992,-0.428311081,Subject B,neutral
-0.006119846,0.440461599,0.051664712,-1.798906933,-0.315381539,Subject B,neutral
-0.006812639,0.153114991,0.075139662,-1.862996586,-0.285878845,Subject B,neutral
-0.007504036,-0.284089974,0.025502956,-1.903323661,-0.290558456,Subject B,neutral
-0.008196917,-0.487242175,-0.125410858,-1.881479499,-0.189946041,Subject B,neutral
-0.008892545,-0.439825534,-0.302891573,-1.830527045,0.030632642,Subject B,neutral
-0.009589854,-0.439713311,-0.393125797,-1.82549765,0.224187369,Subject B,neutral
-0.01028745,-0.640822513,-0.350107459,-1.913391939,0.258673105,Subject B,neutral
-0.010985053,-0.825878478,-0.229844223,-2.063684235,0.166797839,Subject B,neutral
-0.011683138,-0.718976648,-0.122793622,-2.182223946,0.090681441,Subject B,neutral
-0.012381968,-0.396051339,-0.071945485,-2.187788389,0.113883658,Subject B,neutral
-0.013081278,-0.211250732,-0.06754054,-2.090247221,0.18934677,Subject B,neutral
-0.013780646,-0.332192669,-0.094564813,-1.985988884,0.223005009,Subject B,neutral
-0.014479853,-0.529890558,-0.139142684,-1.963481236,0.184271083,Subject B,neutral
-0.015178879,-0.514187122,-0.150248616,-2.022333411,0.114331934,Subject B,neutral
-0.015877688,-0.335972543,-0.060880208,-2.097659736,0.05337762,Subject B,neutral
-0.016576129,-0.2877266,0.11250796,-2.146201666,0.001953331,Subject B,neutral
-0.017273997,-0.45222779,0.242170483,-2.178064292,-0.035696806,Subject B,neutral
-0.017971121,-0.548917999,0.222724975,-2.206764318,-0.005983593,Subject B,neutral
-0.018667375,-0.305476022,0.105392574,-2.205183325,0.149620409,Subject B,neutral
-0.019362638,0.154245554,0.033284804,-2.137892564,0.401922591,Subject B,neutral
-0.020056765,0.439996814,0.056386908,-2.027416183,0.632944399,Subject B,neutral
-0.020749596,0.3692803,0.084759733,-1.957143342,0.753080027,Subject B,neutral
-0.021440974,0.147059127,0.036311165,-1.987961745,0.770047166,Subject B,neutral
-0.022130752,0.023150459,-0.044958009,-2.083580012,0.694399384,Subject B,neutral
-0.022818788,-0.077221017,-0.06656814,-2.145909328,0.446831878,Subject B,neutral
-0.023504933,-0.421763238,-0.032161899,-2.121597883,-0.022291539,Subject B,neutral
-0.024189033,-1.018800321,-0.036328958,-2.036136292,-0.547061969,Subject B,neutral
-0.024870937,-1.482870552,-0.127649699,-1.917215307,-0.831091993,Subject B,neutral
-0.025550492,-1.434507889,-0.247694981,-1.744874249,-0.760094069,Subject B,neutral
-0.026227546,-0.947055078,-0.322366768,-1.524468273,-0.513217768,Subject B,neutral
-0.026901947,-0.496588383,-0.35107753,-1.361994673,-0.315524931,Subject B,neutral
-0.027573538,-0.472545821,-0.361041278,-1.382536224,-0.192480165,Subject B,neutral
-0.028242164,-0.796816056,-0.318860541,-1.565693782,-0.041156379,Subject B,neutral
-0.028907672,-1.057370343,-0.165916821,-1.72884977,0.148615842,Subject B,neutral
-0.029569905,-0.996005576,0.056016505,-1.711033567,0.245398606,Subject B,neutral
-0.030228707,-0.794622768,0.196147518,-1.533231486,0.119383873,Subject B,neutral
-0.030883923,-0.812877362,0.164460423,-1.330998438,-0.23071603,Subject B,neutral
-0.031535394,-1.084315764,0.06347497,-1.157615155,-0.677213519,Subject B,neutral
-0.032182966,-1.231120266,0.085029818,-0.926000438,-1.031695231,Subject B,neutral
-0.032826482,-0.962300961,0.291666308,-0.561041421,-1.112385283,Subject B,neutral
-0.033465785,-0.515114293,0.555301308,-0.146583596,-0.815775622,Subject B,neutral
-0.034100719,-0.405455599,0.707240757,0.137211952,-0.202583966,Subject B,neutral
-0.034731129,-0.769948579,0.700357408,0.21111192,0.472178142,Subject B,neutral
-0.035356858,-1.17028851,0.618932145,0.184647598,0.879117819,Subject B,neutral
-0.035977751,-1.136286922,0.571059117,0.237140941,0.842091182,Subject B,neutral
-0.036593652,-0.744779074,0.592452717,0.444677429,0.466410713,Subject B,neutral
-0.037204405,-0.489442368,0.638136694,0.741082449,0.016141738,Subject B,neutral
-0.037809853,-0.625597487,0.647549196,1.013477589,-0.336557258,Subject B,neutral
-0.038409843,-0.847027807,0.607435848,1.193905683,-0.609099897,Subject B,neutral
-0.039004219,-0.714021962,0.544310561,1.273567802,-0.866107284,Subject B,neutral
-0.039592827,-0.273542634,0.463507457,1.293052693,-1.058518777,Subject B,neutral
-0.040175515,-0.046673611,0.324839249,1.353053843,-1.069456846,Subject B,neutral
-0.040752131,-0.362585338,0.101639458,1.583301539,-0.888183371,Subject B,neutral
-0.041322527,-0.880525271,-0.142426287,2.018988469,-0.656267547,Subject B,neutral
-0.041886553,-0.944523976,-0.262742104,2.506541236,-0.519424394,Subject B,neutral
-0.042444064,-0.372274912,-0.151518537,2.817742168,-0.480957012,Subject B,neutral
-0.042994911,0.299726239,0.13264864,2.905496645,-0.429697552,Subject B,neutral
-0.043538949,0.443531182,0.364597361,2.991027619,-0.28649018,Subject B,neutral
-0.044076034,0.074857734,0.327382383,3.337255432,-0.095123409,Subject B,neutral
-0.044606021,-0.215142396,0.02426181,3.961388301,0.025173629,Subject B,neutral
-0.045128769,-0.024667299,-0.293694504,4.618905079,0.001730557,Subject B,neutral
-0.045644135,0.385647502,-0.350007525,5.052266854,-0.110072656,Subject B,neutral
-0.04615198,0.488709316,-0.109020006,5.21116738,-0.147084192,Subject B,neutral
-0.046652166,0.181851391,0.196924815,5.243519286,0.053745194,Subject B,neutral
-0.047144559,-0.143376647,0.311326471,5.330465937,0.517591109,Subject B,neutral
-0.047629023,-0.173464704,0.195102004,5.553418807,1.048904224,Subject B,neutral
-0.048105426,-0.053341801,0.013457331,5.879552473,1.295014627,Subject B,neutral
-0.048573638,-0.086921311,-0.071244955,6.219529081,0.972239272,Subject B,neutral
-0.049033527,-0.252325569,-0.048608105,6.48699693,0.114144471,Subject B,neutral
-0.049484966,-0.242538941,-0.029989876,6.636228959,-0.884914933,Subject B,neutral
-0.049927826,0.049131523,-0.125382516,6.677438746,-1.518034745,Subject B,neutral
-0.05036198,0.314403027,-0.347578395,6.662291696,-1.514708617,Subject B,neutral
-0.050787303,0.211933227,-0.591323078,6.6437303,-0.996949427,Subject B,neutral
-0.05120367,-0.164228852,-0.702007149,6.641457624,-0.353384542,Subject B,neutral
-0.051610957,-0.372862027,-0.611670792,6.642795043,0.022605246,Subject B,neutral
-0.05200904,-0.177605685,-0.423240237,6.632908248,-0.025263428,Subject B,neutral
-0.0523978,0.152240285,-0.319284349,6.618884677,-0.284571325,Subject B,neutral
-0.052777114,0.195993088,-0.371564117,6.619309128,-0.279325682,Subject B,neutral
-0.053146867,-0.053737502,-0.483910295,6.628053534,0.328880287,Subject B,neutral
-0.053506944,-0.152509961,-0.533387753,6.59528748,1.322864444,Subject B,neutral
-0.05385723,0.228099164,-0.503729109,6.462638582,1.991212417,Subject B,neutral
-0.054197615,0.832159461,-0.451444252,6.232742759,1.764081142,Subject B,neutral
-0.05452799,1.066724534,-0.410830417,5.996225882,0.802696107,Subject B,neutral
-0.054848248,0.696035184,-0.386152014,5.862384665,-0.153541462,Subject B,neutral
-0.055158285,0.133961938,-0.387888478,5.846173536,-0.530875936,Subject B,neutral
-0.055458,-0.035369988,-0.420287492,5.833056803,-0.366604993,Subject B,neutral
-0.055747295,0.277592578,-0.460335232,5.674186912,0.017934122,Subject B,neutral
-0.056026075,0.624745852,-0.486927868,5.326786812,0.544839871,Subject B,neutral
-0.056294248,0.611059559,-0.504518809,4.902757283,1.328522786,Subject B,neutral
-0.056551723,0.351712874,-0.510847606,4.573412439,2.188507792,Subject B,neutral
-0.056798415,0.254102385,-0.477197208,4.415792899,2.549624316,Subject B,neutral
-0.057034239,0.47364633,-0.397407677,4.346288272,1.981489396,Subject B,neutral
-0.057259117,0.761566705,-0.326231501,4.200987127,0.679977428,Subject B,neutral
-0.057472972,0.827911044,-0.325369887,3.873941435,-0.717730949,Subject B,neutral
-0.057675731,0.657850942,-0.388927917,3.38404405,-1.677311018,Subject B,neutral
-0.057867324,0.394205273,-0.461973638,2.839595651,-2.024562101,Subject B,neutral
-0.058047684,0.091584857,-0.519999192,2.364891803,-1.843017154,Subject B,neutral
-0.058216745,-0.233892833,-0.5892025,2.048710303,-1.355505427,Subject B,neutral
-0.058374447,-0.416004581,-0.687696485,1.92104176,-0.853572374,Subject B,neutral
-0.058520731,-0.241283586,-0.779904549,1.940607633,-0.500712279,Subject B,neutral
-0.058655544,0.221357515,-0.808622976,1.996919564,-0.147712373,Subject B,neutral
-0.058778835,0.57577507,-0.767405818,1.956346902,0.474931827,Subject B,neutral
-0.058890556,0.511292518,-0.719502271,1.753112571,1.279616219,Subject B,neutral
-0.058990664,0.198418928,-0.715273377,1.450021846,1.692320564,Subject B,neutral
-0.05907912,0.146100218,-0.688625867,1.181780369,1.185564495,Subject B,neutral
-0.059155889,0.624692866,-0.484260667,1.013290276,-0.098199671,Subject B,neutral
-0.05922094,1.298654727,-0.038738821,0.867005017,-1.402296085,Subject B,neutral
-0.059274245,1.520564779,0.479158591,0.616291581,-2.032205286,Subject B,neutral
-0.059315782,0.984955491,0.769423102,0.246063808,-1.874252143,Subject B,neutral
-0.059345532,1.72e-05,0.672668363,-0.112526604,-1.292517296,Subject B,neutral
-0.059363478,-0.891316486,0.320355309,-0.326212882,-0.727336695,Subject B,neutral
-0.059369609,-1.403803117,-0.002247915,-0.416067053,-0.485823017,Subject B,neutral
-0.059363918,-1.553099511,-0.121560275,-0.534344187,-0.704772138,Subject B,neutral
-0.059346398,-1.417451807,-0.092595448,-0.785422386,-1.202060177,Subject B,neutral
-0.059317046,-1.096618272,-0.093463584,-1.103701115,-1.361643706,Subject B,neutral
-0.059275863,-0.821973161,-0.254159689,-1.32314212,-0.540462672,Subject B,neutral
-0.059222853,-0.813010602,-0.569541291,-1.344476903,1.105799203,Subject B,neutral
-0.059158025,-0.946104964,-0.909613178,-1.219217961,2.379642075,Subject B,neutral
-0.05908139,-0.784301224,-1.099770301,-1.08735381,2.070203188,Subject B,neutral
-0.058992962,-0.101669886,-1.055017146,-1.052338294,0.353900584,Subject B,neutral
-0.058892759,0.732722595,-0.873086113,-1.115302697,-1.168416013,Subject B,neutral
-0.058780799,1.07339379,-0.753526545,-1.212910369,-1.125391067,Subject B,neutral
-0.058657106,0.687017887,-0.79107315,-1.289214702,0.100133195,Subject B,neutral
-0.058521706,0.001910819,-0.884798217,-1.316435789,0.82308531,Subject B,neutral
-0.058374625,-0.333244969,-0.883466592,-1.284741688,-0.019391726,Subject B,neutral
-0.058215895,-0.057335297,-0.778076686,-1.22264496,-1.740530453,Subject B,neutral
-0.05804555,0.52333356,-0.693814493,-1.206896304,-2.776504064,Subject B,neutral
-0.057863629,0.868872333,-0.713622942,-1.287282372,-2.356541543,Subject B,neutral
-0.057670171,0.699213743,-0.782434324,-1.396952699,-1.079030891,Subject B,neutral
-0.057465221,0.228267919,-0.800533603,-1.39577039,-0.057265425,Subject B,neutral
-0.057248823,-0.042984809,-0.749886566,-1.231826891,0.153527536,Subject B,neutral
-0.057021028,0.205290274,-0.688806095,-1.028961771,-0.206513597,Subject B,neutral
-0.056781887,0.811538781,-0.661328581,-0.976793669,-0.604392218,Subject B,neutral
-0.056531456,1.307207308,-0.662536761,-1.131437948,-0.745229125,Subject B,neutral
-0.056269791,1.391985825,-0.67968738,-1.347474441,-0.688967806,Subject B,neutral
-0.055996952,1.190277525,-0.715251313,-1.423929586,-0.611011068,Subject B,neutral
