timestamps,TP9,AF7,AF8,TP10,Subject,Emotion
0.010489913,-0.220855694,-0.162086341,-1.045128962,-0.817796557,Subject B,neutral
0.010497599,-0.276022758,-0.266997117,-1.062205219,-0.714815924,Subject B,neutral
0.010504136,-0.085902066,-0.326300308,-1.031885406,-0.478353531,Subject B,neutral
0.01050945,0.018501697,-0.337802413,-1.004068707,-0.266097764,Subject B,neutral
0.010513473,-0.101132063,-0.317977356,-1.014114676,-0.160580074,Subject B,neutral
0.010516135,-0.232550511,-0.275392364,-1.052608108,-0.070121983,Subject B,neutral
0.010517367,-0.151802042,-0.218396571,-1.089341284,0.128734287,Subject B,neutral
0.010517102,0.041845151,-0.174715993,-1.112191216,0.391010769,Subject B,neutral
0.010515276,0.076386071,-0.17500461,-1.130667948,0.51878184,Subject B,neutral
0.010511823,-0.073110409,-0.213369616,-1.15194259,0.390141844,Subject B,neutral
0.010506679,-0.118195582,-0.246121129,-1.172412058,0.120772815,Subject B,neutral
0.010499783,0.124389867,-0.240122932,-1.193236869,-0.049244932,Subject B,neutral
0.010491072,0.422038555,-0.208508564,-1.226910855,-0.016693483,Subject B,neutral
0.010480488,0.405924307,-0.187680245,-1.278971845,0.089400841,Subject B,neutral
0.010467971,0.08227068,-0.189303054,-1.332390659,0.096370826,Subject B,neutral
0.010453464,-0.148595118,-0.190107271,-1.361413222,0.021811359,Subject B,neutral
0.01043691,-0.019846623,-0.16815414,-1.358716297,0.043475836,Subject B,neutral
0.010418253,0.239367406,-0.135049975,-1.340560474,0.235491366,Subject B,neutral
0.010397439,0.202838359,-0.123548889,-1.325900267,0.429799572,Subject B,neutral
0.010374412,-0.182319514,-0.149756391,-1.319309983,0.41534629,Subject B,neutral
0.010349118,-0.496623263,-0.198187614,-1.317518418,0.225620835,Subject B,neutral
0.010321504,-0.351345503,-0.241636203,-1.324691763,0.119569037,Subject B,neutral
0.010291518,0.130530318,-0.263106893,-1.351576823,0.260160703,Subject B,neutral
0.010259107,0.445809757,-0.256580701,-1.397454462,0.504266245,Subject B,neutral
0.010224221,0.299056201,-0.221699304,-1.438719087,0.573416492,Subject B,neutral
0.010186812,-0.058564098,-0.169649093,-1.445104813,0.378915868,Subject B,neutral
0.010146831,-0.14624999,-0.12746683,-1.413522261,0.098104999,Subject B,neutral
0.010104234,0.160800539,-0.122305916,-1.380101526,-0.056065892,Subject B,neutral
0.010058976,0.494016,-0.155948045,-1.386573305,-0.058426143,Subject B,neutral
0.010011014,0.464724822,-0.198465711,-1.433945413,-0.038928801,Subject B,neutral
0.00996031,0.149308502,-0.212427499,-1.481540618,-0.090921318,Subject B,neutral
0.009906824,-0.01697597,-0.18563887,-1.497234503,-0.178337994,Subject B,neutral
0.009850522,0.215579908,-0.138534734,-1.498592492,-0.226406912,Subject B,neutral
0.00979137,0.619746739,-0.099268158,-1.532943159,-0.243829829,Subject B,neutral
0.009729339,0.789485524,-0.077098847,-1.617171218,-0.312176319,Subject B,neutral
0.009664401,0.614806278,-0.064433638,-1.707850879,-0.469124411,Subject B,neutral
0.00959653,0.34747755,-0.058925752,-1.742733982,-0.649283082,Subject B,neutral
0.009525702,0.242790757,-0.072997651,-1.7134023,-0.761183753,Subject B,neutral
0.009451897,0.286075687,-0.119022536,-1.683335993,-0.795032746,Subject B,neutral
0.009375096,0.323638352,-0.190411421,-1.719920682,-0.819117578,Subject B,neutral
0.009295281,0.334393787,-0.260760803,-1.814557151,-0.872558958,Subject B,neutral
0.009212438,0.424347241,-0.301165111,-1.88987368,-0.895953266,Subject B,neutral
0.009126555,0.585826476,-0.300596876,-1.889801095,-0.795441091,Subject B,neutral
0.009037622,0.638774996,-0.275004015,-1.842832995,-0.570964907,Subject B,neutral
0.008945632,0.493537057,-0.257255331,-1.822478192,-0.349406745,Subject B,neutral
0.008850582,0.347582117,-0.271471126,-1.858827813,-0.263960522,Subject B,neutral
0.008752472,0.463563526,-0.312807005,-1.910851458,-0.310952958,Subject B,neutral
0.008651304,0.782957179,-0.356349686,-1.925506524,-0.357134468,Subject B,neutral
0.008547084,0.934822768,-0.388853539,-1.902994795,-0.288916921,Subject B,neutral
0.008439822,0.69741941,-0.42475135,-1.888663454,-0.117866084,Subject B,neutral
0.008329529,0.321603963,-0.482002702,-1.907156162,0.076549713,Subject B,neutral
0.008216221,0.260188157,-0.546098604,-1.923454803,0.26645551,Subject B,neutral
0.008099914,0.621809343,-0.573872218,-1.882287246,0.484197333,Subject B,neutral
0.007980628,1.037236166,-0.54166511,-1.783427769,0.715979976,Subject B,neutral
0.007858386,1.100316599,-0.47858028,-1.701650298,0.85245764,Subject B,neutral
0.007733212,0.831102912,-0.436848019,-1.717678312,0.801521372,Subject B,neutral
0.007605132,0.611348239,-0.434325865,-1.832439092,0.630996281,Subject B,neutral
0.007474174,0.706572076,-0.443957749,-1.963386927,0.5264866,Subject B,neutral
0.007340368,0.965381791,-0.439713468,-2.027533087,0.576004564,Subject B,neutral
0.007203744,1.034905575,-0.432418009,-2.01503433,0.652186214,Subject B,neutral
0.007064334,0.806218602,-0.450588318,-1.975463548,0.575050288,Subject B,neutral
0.006922169,0.550671984,-0.499792592,-1.947463487,0.369544584,Subject B,neutral
0.006777284,0.592975301,-0.555387679,-1.922619505,0.272104838,Subject B,neutral
0.006629713,0.919545857,-0.592384619,-1.879360765,0.444859107,Subject B,neutral
0.006479488,1.193256329,-0.611914952,-1.831422976,0.750029409,Subject B,neutral
0.006326644,1.152300219,-0.635176177,-1.82250196,0.88625291,Subject B,neutral
0.006171213,0.901151394,-0.67623794,-1.87353883,0.734811565,Subject B,neutral
0.00601323,0.738889638,-0.726104655,-1.952097261,0.495679487,Subject B,neutral
0.005852726,0.75931941,-0.764444951,-2.004810219,0.456387119,Subject B,neutral
0.005689732,0.750550302,-0.783816177,-2.0132885,0.678388019,Subject B,neutral
0.00552428,0.522812292,-0.797582246,-2.005954965,0.956760787,Subject B,neutral
0.005356402,0.213747437,-0.821014758,-2.016216969,1.06830665,Subject B,neutral
0.005186127,0.140420458,-0.847762319,-2.04317398,1.005468584,Subject B,neutral
0.005013484,0.381679417,-0.853509026,-2.061796516,0.940684741,Subject B,neutral
0.004838501,0.657672383,-0.825909929,-2.062456673,0.989927951,Subject B,neutral
0.004661204,0.681809037,-0.782170866,-2.063825699,1.073228697,Subject B,neutral
0.004481623,0.510936003,-0.750426384,-2.084005798,1.039345776,Subject B,neutral
0.004299784,0.417633554,-0.743113582,-2.115135779,0.881386456,Subject B,neutral
0.004115711,0.474238526,-0.759654103,-2.140544799,0.752618868,Subject B,neutral
0.003929421,0.440001242,-0.805515962,-2.168213548,0.765301106,Subject B,neutral
0.003740936,0.114347977,-0.887988334,-2.226812625,0.850708255,Subject B,neutral
0.003550289,-0.33322578,-0.991162281,-2.324686627,0.859675451,Subject B,neutral
0.003357517,-0.522377754,-1.07312439,-2.428747117,0.742518183,Subject B,neutral
0.003162644,-0.326206339,-1.099829409,-2.495468047,0.56565628,Subject B,neutral
0.00296567,-0.048777988,-1.077799586,-2.516137398,0.388684615,Subject B,neutral
0.002766603,-0.073838459,-1.048224869,-2.521054087,0.211089378,Subject B,neutral
0.002565497,-0.404814115,-1.049518684,-2.540806742,0.047360632,Subject B,neutral
0.002362441,-0.666792531,-1.0850364,-2.57306408,-0.020994115,Subject B,neutral
0.002157474,-0.574042574,-1.125507959,-2.591866316,0.080774822,Subject B,neutral
0.00195052,-0.274767692,-1.144207077,-2.583100478,0.314456959,Subject B,neutral
0.001741492,-0.136675088,-1.148287575,-2.558850964,0.529261747,Subject B,neutral
0.001530499,-0.264112234,-1.168600482,-2.533791095,0.574590536,Subject B,neutral
0.00131786,-0.390151851,-1.216591459,-2.502171148,0.419398361,Subject B,neutral
0.001103732,-0.281097855,-1.25826538,-2.454329891,0.181850801,Subject B,neutral
0.00088775,-0.090739684,-1.237978386,-2.408504211,0.043284645,Subject B,neutral
0.000669336,-0.157813852,-1.132596897,-2.401546492,0.099903409,Subject B,neutral
0.000448669,-0.501132183,-0.986626532,-2.439792637,0.27375019,Subject B,neutral
0.00022704,-0.709309031,-0.891694449,-2.478239565,0.383753317,Subject B,neutral
5.42e-06,-0.42602093,-0.918425374,-2.467313827,0.321027725,Subject B,neutral
-0.000217557,0.154894731,-1.056628773,-2.41513324,0.134741588,Subject B,neutral
-0.000444864,0.416898226,-1.223554659,-2.385530978,-0.065250697,Subject B,neutral
-0.000676774,-0.033391739,-1.338872153,-2.427894839,-0.235904702,Subject B,neutral
-0.000908022,-0.916383231,-1.392023221,-2.519226616,-0.377180197,Subject B,neutral
-0.001133008,-1.535626225,-1.429253605,-2.588846251,-0.438772304,Subject B,neutral
-0.001355969,-1.477495551,-1.478384291,-2.600570055,-0.374160445,Subject B,neutral
-0.001591352,-1.000022793,-1.507700579,-2.595711685,-0.299896579,Subject B,neutral
-0.001845486,-0.7044929,-1.47430853,-2.642945924,-0.460288677,Subject B,neutral
-0.002096579,-0.892300796,-1.398997562,-2.754573238,-0.926862725,Subject B,neutral
-0.002304188,-1.32825466,-1.364171585,-2.873114378,-1.413431699,Subject B,neutral
-0.002450177,-1.59580179,-1.427686297,-2.946278077,-1.535972722,Subject B,neutral
-0.002567283,-1.539426051,-1.555285046,-2.999887649,-1.246491537,Subject B,neutral
-0.002715351,-1.296481809,-1.654934215,-3.124661876,-0.873525165,Subject B,neutral
-0.002927116,-1.030444852,-1.671953208,-3.395856367,-0.7109954,Subject B,neutral
-0.003184442,-0.815835281,-1.632887093,-3.809692856,-0.714194054,Subject B,neutral
-0.00344688,-0.765603458,-1.595326235,-4.287195024,-0.690644132,Subject B,neutral
-0.003692636,-1.05610546,-1.577042893,-4.728866005,-0.668086096,Subject B,neutral
-0.003928034,-1.690012412,-1.554224279,-5.070951539,-0.887722797,Subject B,neutral
-0.004167515,-2.327981207,-1.519690724,-5.304084734,-1.41516174,Subject B,neutral
-0.004415309,-2.522846388,-1.508955972,-5.451326118,-1.920627287,Subject B,neutral
-0.004665806,-2.170167891,-1.550046425,-5.537974227,-1.985118632,Subject B,neutral
-0.004913731,-1.656696689,-1.611397036,-5.585536145,-1.583192257,Subject B,neutral
-0.005159342,-1.484465219,-1.635164611,-5.624912583,-1.126471493,Subject B,neutral
-0.005405602,-1.747527649,-1.616839847,-5.693793027,-1.006294239,Subject B,neutral
-0.005653853,-2.052983247,-1.613573677,-5.803166137,-1.203003072,Subject B,neutral
-0.005903107,-1.993226157,-1.664143919,-5.911325705,-1.398650315,Subject B,neutral
-0.00615205,-1.604225603,-1.736290722,-5.956026109,-1.382549392,Subject B,neutral
-0.006400475,-1.252336506,-1.776284345,-5.926154684,-1.247745736,Subject B,neutral
-0.006648931,-1.133652884,-1.782236939,-5.88471456,-1.196842084,Subject B,neutral
-0.006897755,-1.061750701,-1.79176068,-5.897812578,-1.220880561,Subject B,neutral
-0.007146752,-0.797325972,-1.809736633,-5.944153213,-1.047234998,Subject B,neutral
-0.007395571,-0.443368697,-1.793314273,-5.917228515,-0.485001951,Subject B,neutral
-0.007644068,-0.360760523,-1.719848521,-5.727268391,0.193123898,Subject B,neutral
-0.007892292,-0.695569011,-1.631436572,-5.390860804,0.384797707,Subject B,neutral
-0.008140276,-1.126325191,-1.584139653,-5.012716239,-0.177096396,Subject B,neutral
-0.008387944,-1.184415608,-1.580059552,-4.690741586,-0.971455224,Subject B,neutral
-0.008635163,-0.774682576,-1.585919634,-4.447438194,-1.10586606,Subject B,neutral
-0.008881836,-0.257218796,-1.598421819,-4.230628914,-0.251808197,Subject B,neutral
-0.009127914,-0.005841274,-1.642123391,-3.94519926,0.95918508,Subject B,neutral
-0.009373349,-0.002962532,-1.705881239,-3.487261393,1.575215137,Subject B,neutral
-0.009618074,0.057345402,-1.733449086,-2.793201533,1.288801208,Subject B,neutral
-0.009862004,0.340144592,-1.696176312,-1.888144064,0.644130584,Subject B,neutral
-0.01010506,0.675163521,-1.639984888,-0.876410444,0.338904839,Subject B,neutral
-0.010347174,0.817735033,-1.635812791,0.133113993,0.517423388,Subject B,neutral
-0.010588283,0.773932663,-1.701402817,1.088772957,0.803616764,Subject B,neutral
-0.010828319,0.729653094,-1.78661008,1.986623257,0.826880111,Subject B,neutral
-0.011067212,0.717987995,-1.817806185,2.829189512,0.538269877,Subject B,neutral
-0.011304892,0.557904545,-1.74652202,3.614758938,0.108306403,Subject B,neutral
-0.011541292,0.175202539,-1.583676644,4.347678312,-0.270857042,Subject B,neutral
-0.01177635,-0.185478065,-1.411516644,5.030002937,-0.44599609,Subject B,neutral
-0.012010001,-0.202856854,-1.336261788,5.647394246,-0.318852885,Subject B,neutral
-0.01224218,0.129296031,-1.389466011,6.182638588,0.073787901,Subject B,neutral
-0.012472823,0.469773851,-1.484926323,6.636457895,0.515021662,Subject B,neutral
-0.012701866,0.503168468,-1.506262871,7.015474252,0.735416356,Subject B,neutral
-0.012929247,0.277695178,-1.42942651,7.306323789,0.639748451,Subject B,neutral
-0.013154901,0.11682083,-1.326729234,7.485643743,0.389953605,Subject B,neutral
-0.013378767,0.216613865,-1.261763435,7.557888687,0.228557533,Subject B,neutral
-0.013600781,0.416516348,-1.227822761,7.56393313,0.22850376,Subject B,neutral
-0.013820883,0.417373519,-1.198285498,7.546398641,0.255828697,Subject B,neutral
-0.014039011,0.159275556,-1.189105373,7.523086931,0.176950657,Subject B,neutral
-0.014255104,-0.118313222,-1.230778996,7.503478134,0.042062805,Subject B,neutral
-0.014469101,-0.184239729,-1.295414235,7.509835672,0.019987023,Subject B,neutral
-0.014680943,-0.078114491,-1.299384471,7.550867677,0.180459855,Subject B,neutral
-0.014890571,-0.016858978,-1.199234375,7.578636306,0.392535252,Subject B,neutral
-0.015097927,-0.114754757,-1.061160956,7.522307294,0.443578654,Subject B,neutral
-0.015302952,-0.287976031,-1.00282398,7.405607082,0.233282088,Subject B,neutral
-0.015505592,-0.419928383,-1.067104764,7.38722446,-0.146929814,Subject B,neutral
-0.01570579,-0.51623738,-1.17955779,7.576482549,-0.493829847,Subject B,neutral
-0.015903491,-0.634598835,-1.234847703,7.785058271,-0.643299889,Subject B,neutral
-0.016098641,-0.722137674,-1.198013571,7.631575057,-0.578057839,Subject B,neutral
-0.016291188,-0.635852675,-1.110483152,7.096570149,-0.422089789,Subject B,neutral
-0.016481077,-0.352136828,-1.027204449,6.863177361,-0.33322166,Subject B,neutral
-0.01666826,-0.067287441,-0.973878482,7.634425324,-0.389543848,Subject B,neutral
-0.016852687,-0.008839441,-0.947650132,8.84016646,-0.562764642,Subject B,neutral
-0.017034309,-0.178021477,-0.927734705,8.53176132,-0.766262799,Subject B,neutral
-0.017213081,-0.355441304,-0.887590907,5.425885628,-0.900276662,Subject B,neutral
-0.017388957,-0.361309958,-0.824959365,1.067062735,-0.882524798,Subject B,neutral
-0.017561895,-0.247966695,-0.787765074,-1.054001351,-0.710142027,Subject B,neutral
-0.017731853,-0.210027098,-0.841871063,0.892196784,-0.506105142,Subject B,neutral
-0.017898792,-0.330489369,-0.984624029,5.027391053,-0.421756423,Subject B,neutral
-0.018062676,-0.451053436,-1.102906793,7.910358934,-0.437751133,Subject B,neutral
-0.018223469,-0.334800813,-1.060648011,8.095130022,-0.337287727,Subject B,neutral
-0.018381141,0.025800975,-0.849265029,6.870819941,0.029808611,Subject B,neutral
-0.018535661,0.340696713,-0.623816823,6.056940197,0.504655144,Subject B,neutral
-0.018687001,0.365197443,-0.553778159,6.09324422,0.750428028,Subject B,neutral
-0.018835135,0.252722259,-0.643999333,6.302625353,0.619509222,Subject B,neutral
-0.018980034,0.376196213,-0.737707897,6.172161502,0.306233457,Subject B,neutral
-0.019121675,0.776190535,-0.699531418,5.865721786,0.126517519,Subject B,neutral
-0.019260034,1.019939694,-0.554878384,5.753149019,0.200135557,Subject B,neutral
-0.019395087,0.757485598,-0.42570439,5.897075639,0.361318763,Subject B,neutral
-0.019526812,0.233841991,-0.367734658,6.084783893,0.360258913,Subject B,neutral
-0.019655187,0.009063007,-0.324365305,6.152817437,0.14828155,Subject B,neutral
-0.019780191,0.250445154,-0.23310661,6.139713221,-0.05347347,Subject B,neutral
-0.019901803,0.570201566,-0.118226234,6.168323817,-0.003063895,Subject B,neutral
-0.020020006,0.597201548,-0.050717438,6.275181871,0.27003958,Subject B,neutral
-0.02013478,0.461388523,-0.051673563,6.38254663,0.499818419,Subject B,neutral
-0.020246111,0.553046407,-0.071440454,6.405336942,0.512745763,Subject B,neutral
-0.020353984,0.942026409,-0.050856294,6.345281614,0.419866138,Subject B,neutral
-0.020458385,1.259229538,0.029393185,6.264949042,0.430672979,Subject B,neutral
-0.020559304,1.175068456,0.158322255,6.189659154,0.570796039,Subject B,neutral
-0.02065673,0.826883044,0.318080055,6.068607093,0.686519555,Subject B,neutral
-0.020750651,0.645685737,0.476466781,5.838408173,0.681362373,Subject B,neutral
-0.020841057,0.813757136,0.579298419,5.499238633,0.623468185,Subject B,neutral
-0.020927938,1.042753891,0.591114491,5.113874068,0.601050037,Subject B,neutral
-0.021011284,0.950056157,0.546826177,4.749066313,0.578471457,Subject B,neutral
-0.021091084,0.554728932,0.526088073,4.43155983,0.473508451,Subject B,neutral
-0.021167329,0.25871519,0.561502329,4.142916519,0.327137369,Subject B,neutral
-0.021240008,0.331582178,0.603667333,3.835620237,0.291699339,Subject B,neutral
-0.02130911,0.561561032,0.594078822,3.465943997,0.428009297,Subject B,neutral
-0.021374624,0.536643329,0.538512607,3.03514134,0.595172515,Subject B,neutral
-0.021436538,0.20413882,0.48200593,2.595026181,0.603629357,Subject B,neutral
-0.02149484,-0.031077012,0.440303872,2.197706778,0.433026524,Subject B,neutral
-0.021549515,0.170854004,0.392646408,1.850355031,0.227291078,Subject B,neutral
-0.021600549,0.615312232,0.333344183,1.536723832,0.096420099,Subject B,neutral
-0.021647924,0.797515927,0.298533643,1.265371298,0.016298564,Subject B,neutral
-0.021691624,0.543501612,0.327364994,1.063831361,-0.044458846,Subject B,neutral
-0.02173163,0.213796467,0.403385568,0.926781532,0.007701544,Subject B,neutral
-0.021767926,0.205451109,0.45411562,0.800266602,0.280261701,Subject B,neutral
-0.02180049,0.446664695,0.427184825,0.63364777,0.665312089,Subject B,neutral
-0.021829305,0.562865751,0.358082847,0.438395471,0.858219408,Subject B,neutral
-0.021854351,0.435381875,0.334823427,0.282598088,0.681060215,Subject B,neutral
-0.021875608,0.337840191,0.396016567,0.225749156,0.306274318,Subject B,neutral
-0.021893057,0.471168449,0.495363369,0.263828683,0.068123432,Subject B,neutral
-0.021906679,0.603081784,0.573197485,0.335835858,0.097929544,Subject B,neutral
-0.021916454,0.373748726,0.626042194,0.371749341,0.231846222,Subject B,neutral
-0.021922366,-0.145825479,0.680510334,0.329872764,0.251897854,Subject B,neutral
-0.021924397,-0.455721379,0.727293769,0.205438026,0.127271672,Subject B,neutral
-0.021922529,-0.237901571,0.726706661,0.028329323,0.000863493,Subject B,neutral
-0.021916748,0.228279008,0.679806286,-0.143811349,-0.006558185,Subject B,neutral
-0.021907041,0.406124187,0.650825096,-0.254468943,0.062761725,Subject B,neutral
-0.021893395,0.163924739,0.695430828,-0.294891919,0.060048049,Subject B,neutral
-0.021875803,-0.087665283,0.791668309,-0.319423812,-0.089436694,Subject B,neutral
-0.021854257,0.054924752,0.869604112,-0.395001726,-0.288441872,Subject B,neutral
-0.021828755,0.46963622,0.895750215,-0.53230194,-0.364649681,Subject B,neutral
-0.021799296,0.682170031,0.898930392,-0.683256838,-0.25007492,Subject B,neutral
-0.02176588,0.482871144,0.916519237,-0.808299908,-0.048122101,Subject B,neutral
-0.02172851,0.172491841,0.946702601,-0.920272937,0.065502903,Subject B,neutral
-0.021687193,0.141077474,0.965707391,-1.044725075,-0.001493926,Subject B,neutral
-0.021641933,0.367937275,0.96986375,-1.156698752,-0.178142938,Subject B,neutral
-0.021592741,0.491750707,0.98197292,-1.189017954,-0.286864793,Subject B,neutral
-0.021539624,0.316589373,1.025742957,-1.108358371,-0.203895841,Subject B,neutral
-0.021482597,0.075878234,1.105388301,-0.961446532,0.009274623,Subject B,neutral
-0.021421672,0.129126951,1.20157215,-0.830499455,0.15145175,Subject B,neutral
-0.021356866,0.488791649,1.280427699,-0.754416567,0.082801019,Subject B,neutral
-0.021288198,0.772025815,1.317210729,-0.713549923,-0.137579923,Subject B,neutral
-0.021215687,0.647964434,1.318306722,-0.682942562,-0.331772322,Subject B,neutral
-0.021139355,0.239297462,1.314873314,-0.662000643,-0.379599913,Subject B,neutral
-0.021059225,-0.026469176,1.335237332,-0.635416066,-0.276477334,Subject B,neutral
-0.020975321,0.060049174,1.388624247,-0.544500883,-0.068901378,Subject B,neutral
-0.020887671,0.259619685,1.469917897,-0.344906824,0.177736474,Subject B,neutral
-0.020796304,0.240249399,1.571418332,-0.081247327,0.359392469,Subject B,neutral
-0.02070125,0.035836441,1.691521708,0.144283955,0.38676749,Subject B,neutral
-0.020602539,-0.00681121,1.831692741,0.281680728,0.300596368,Subject B,neutral
-0.020500203,0.287093054,1.976217188,0.365769696,0.260711863,Subject B,neutral
-0.020394275,0.654469552,2.080376848,0.429346048,0.360371325,Subject B,neutral
-0.020284787,0.700473098,2.105556179,0.442179074,0.495586466,Subject B,neutral
-0.020171769,0.386543449,2.078829682,0.379053681,0.486521706,Subject B,neutral
