timestamps,TP9,AF7,AF8,TP10,Subject,Emotion
-0.030858625,-0.321232563,0.192286874,-0.149948091,-0.567916551,Subject C,neutral
-0.031217773,0.104440009,0.135302493,-0.092410411,-0.526668883,Subject C,neutral
-0.031572438,0.355991036,0.058557033,-0.105322744,-0.205925277,Subject C,neutral
-0.031922511,0.29523274,0.031860656,-0.200803275,0.069371945,Subject C,neutral
-0.032267885,0.258221888,0.084830896,-0.255110189,0.170954495,Subject C,neutral
-0.032608454,0.568046412,0.175153251,-0.170928857,0.275356282,Subject C,neutral
-0.032944116,1.029504394,0.227116574,-0.013419214,0.535718098,Subject C,neutral
-0.033274767,1.108141559,0.201147643,0.061538781,0.803644536,Subject C,neutral
-0.033600306,0.594326336,0.122607122,-0.007223088,0.799166587,Subject C,neutral
-0.033920632,-0.103405708,0.046354658,-0.124340335,0.490466102,Subject C,neutral
-0.034235646,-0.427262804,0.004325977,-0.1659396,0.150148565,Subject C,neutral
-0.034545251,-0.312046723,-0.00886438,-0.121427247,0.007080375,Subject C,neutral
-0.034849351,-0.193444546,-0.013963464,-0.077063288,-0.024211003,Subject C,neutral
-0.035147853,-0.399231347,-0.0286003,-0.087616969,-0.16548198,Subject C,neutral
-0.035440666,-0.726552352,-0.066003336,-0.113639029,-0.40804614,Subject C,neutral
-0.035727702,-0.743010408,-0.12927591,-0.094715692,-0.491804536,Subject C,neutral
-0.036008876,-0.39308078,-0.196427163,-0.047079325,-0.286201016,Subject C,neutral
-0.036284105,-0.098364379,-0.225971096,-0.050005947,-0.043283741,Subject C,neutral
-0.03655331,-0.216859127,-0.194305562,-0.136001869,-0.128138946,Subject C,neutral
-0.036816413,-0.576485234,-0.123595121,-0.229782898,-0.544706568,Subject C,neutral
-0.037073339,-0.701251988,-0.059233911,-0.227105953,-0.894674361,Subject C,neutral
-0.037324015,-0.431289775,-0.019821605,-0.126351836,-0.860323534,Subject C,neutral
-0.037568369,-0.114092413,0.01973918,-0.04241894,-0.599613021,Subject C,neutral
-0.037806333,-0.117398402,0.093991032,-0.066873674,-0.534968416,Subject C,neutral
-0.03803784,-0.327874196,0.206638807,-0.143357026,-0.805132643,Subject C,neutral
-0.038262828,-0.323321518,0.329461212,-0.132090473,-1.095956856,Subject C,neutral
-0.038481235,0.009252583,0.429867842,0.000396844,-1.069217704,Subject C,neutral
-0.038693003,0.26315551,0.485832868,0.115270452,-0.812129861,Subject C,neutral
-0.038898072,0.033440923,0.479814159,0.067629733,-0.698590007,Subject C,neutral
-0.03909639,-0.507274937,0.402895133,-0.098803916,-0.852955848,Subject C,neutral
-0.039287903,-0.777660874,0.280455732,-0.192037931,-0.966590568,Subject C,neutral
-0.039472559,-0.524991263,0.179358425,-0.109462119,-0.742859947,Subject C,neutral
-0.039650311,-0.15959881,0.162033266,0.031130927,-0.358676295,Subject C,neutral
-0.039821109,-0.21428521,0.22599868,0.037902991,-0.277173385,Subject C,neutral
-0.039984909,-0.635983827,0.304883576,-0.117933985,-0.639290372,Subject C,neutral
-0.040141667,-0.86623377,0.338112177,-0.272240571,-1.058693481,Subject C,neutral
-0.040291343,-0.602179096,0.32713348,-0.274255968,-1.101529457,Subject C,neutral
-0.040433897,-0.204404251,0.314309793,-0.164346486,-0.812367965,Subject C,neutral
-0.040569293,-0.210451771,0.321177298,-0.107107842,-0.608259697,Subject C,neutral
-0.040697498,-0.626233086,0.325660441,-0.178078925,-0.711189047,Subject C,neutral
-0.040818479,-0.936702341,0.296093491,-0.27999605,-0.868306434,Subject C,neutral
-0.040932209,-0.786866348,0.230304379,-0.285712253,-0.701981767,Subject C,neutral
-0.041038661,-0.414007031,0.155837769,-0.20655143,-0.220055855,Subject C,neutral
-0.041137811,-0.289731586,0.102083404,-0.160735032,0.165769529,Subject C,neutral
-0.041229639,-0.484904598,0.079981817,-0.19726663,0.13137855,Subject C,neutral
-0.041314125,-0.602835905,0.082861452,-0.229122679,-0.174549331,Subject C,neutral
-0.041391252,-0.349324081,0.095662432,-0.169641148,-0.32564973,Subject C,neutral
-0.041461007,0.031096757,0.100455557,-0.074974537,-0.143332007,Subject C,neutral
-0.041523379,0.041226605,0.080277958,-0.084347546,0.102222814,Subject C,neutral
-0.04157836,-0.42166329,0.026339132,-0.231739149,0.055227113,Subject C,neutral
-0.041625944,-0.900121076,-0.055020996,-0.383191588,-0.270942978,Subject C,neutral
-0.041666128,-0.922814292,-0.143448494,-0.388447595,-0.524675905,Subject C,neutral
-0.041698912,-0.574143094,-0.214714233,-0.254310129,-0.47424328,Subject C,neutral
-0.041724298,-0.360877112,-0.253437638,-0.124100227,-0.287326973,Subject C,neutral
-0.041742289,-0.553461886,-0.262350486,-0.100993249,-0.279956841,Subject C,neutral
-0.041752892,-0.859082467,-0.26301033,-0.143113234,-0.489291843,Subject C,neutral
-0.041756113,-0.8453879,-0.282107584,-0.148890755,-0.64486382,Subject C,neutral
-0.041751958,-0.542040798,-0.328347131,-0.103791527,-0.567785219,Subject C,neutral
-0.041740436,-0.410901435,-0.382463843,-0.094572782,-0.448926908,Subject C,neutral
-0.041721556,-0.718471081,-0.415644136,-0.18021025,-0.611209132,Subject C,neutral
-0.041695328,-1.150880164,-0.417345845,-0.29603879,-1.051500735,Subject C,neutral
-0.041661763,-1.199193767,-0.399787114,-0.324282424,-1.378268232,Subject C,neutral
-0.041620873,-0.815598496,-0.37815279,-0.243034546,-1.266337148,Subject C,neutral
-0.04157267,-0.469528355,-0.357346324,-0.150596637,-0.861196579,Subject C,neutral
-0.041517168,-0.525025986,-0.339522209,-0.122503024,-0.599329153,Subject C,neutral
-0.041454379,-0.766487908,-0.329667671,-0.097360441,-0.662256333,Subject C,neutral
-0.041384318,-0.704322744,-0.321711007,0.035368425,-0.770323504,Subject C,neutral
-0.041307002,-0.250217001,-0.289355311,0.253925658,-0.579229289,Subject C,neutral
-0.041222445,0.143215948,-0.21204958,0.388866932,-0.146026356,Subject C,neutral
-0.041130661,0.06978641,-0.113904663,0.321853361,0.147877691,Subject C,neutral
-0.041031669,-0.293111084,-0.058513095,0.147408522,0.093044561,Subject C,neutral
-0.040925484,-0.410916281,-0.091231644,0.073465653,-0.102123314,Subject C,neutral
-0.040812127,-0.087568033,-0.193153632,0.170406917,-0.123136466,Subject C,neutral
-0.040691617,0.283101938,-0.300971083,0.284370805,0.022867096,Subject C,neutral
-0.040563971,0.238793082,-0.365441076,0.231791875,0.036477536,Subject C,neutral
-0.040429207,-0.145896429,-0.381833114,0.034993356,-0.241061496,Subject C,neutral
-0.040287349,-0.364171636,-0.37184668,-0.098249747,-0.578902364,Subject C,neutral
-0.040138422,-0.142856466,-0.352849294,-0.026601577,-0.629272941,Subject C,neutral
-0.039982453,0.212575271,-0.330028741,0.156739652,-0.370055677,Subject C,neutral
-0.039819458,0.234004059,-0.309472853,0.245235412,-0.13862777,Subject C,neutral
-0.039649449,-0.098097697,-0.305960111,0.170416832,-0.205309709,Subject C,neutral
-0.039472452,-0.350002967,-0.329753339,0.068983926,-0.43371173,Subject C,neutral
-0.039288519,-0.222463985,-0.368024919,0.092209806,-0.470257565,Subject C,neutral
-0.039097697,0.057547219,-0.391006933,0.208802163,-0.219030869,Subject C,neutral
-0.038899986,0.056592634,-0.383987531,0.252282625,0.027142239,Subject C,neutral
-0.038695355,-0.265769198,-0.36588339,0.146127879,-0.012472679,Subject C,neutral
-0.038483823,-0.484092058,-0.365415447,0.011537379,-0.203588773,Subject C,neutral
-0.038265529,-0.268022523,-0.382094502,0.015850241,-0.152391525,Subject C,neutral
-0.038040621,0.17065926,-0.382011371,0.15719687,0.261449505,Subject C,neutral
-0.037809056,0.351926149,-0.333076888,0.264422845,0.685565497,Subject C,neutral
-0.037570584,0.159190872,-0.236677351,0.210924763,0.717218376,Subject C,neutral
-0.037325112,-0.024946941,-0.12561411,0.065612435,0.406377932,Subject C,neutral
-0.037073079,0.137339093,-0.041208681,-0.006098659,0.182867979,Subject C,neutral
-0.036815137,0.457540215,-0.013591448,0.049849196,0.306858519,Subject C,neutral
-0.036551181,0.464304224,-0.049743842,0.130749798,0.558867352,Subject C,neutral
-0.036279999,0.056450738,-0.126602695,0.135934615,0.554760811,Subject C,neutral
-0.036000708,-0.311396368,-0.197254673,0.10100123,0.252131309,Subject C,neutral
-0.035714753,-0.183050546,-0.215952784,0.128715119,-0.01152295,Subject C,neutral
-0.035425201,0.308388409,-0.166625285,0.226573426,0.026683392,Subject C,neutral
-0.035132417,0.586232999,-0.06983848,0.286346198,0.220721591,Subject C,neutral
-0.034831233,0.346903664,0.037940575,0.236187246,0.232277069,Subject C,neutral
-0.034516149,-0.062235852,0.131001923,0.150334415,-0.00333529,Subject C,neutral
-0.034191504,-0.092381032,0.20037453,0.155917321,-0.182918266,Subject C,neutral
-0.03387185,0.304629261,0.23956086,0.258301924,-0.03972954,Subject C,neutral
-0.033563625,0.624122546,0.237377016,0.327980995,0.281988738,Subject C,neutral
-0.033245146,0.461296777,0.193122821,0.277826641,0.379107871,Subject C,neutral
-0.032876081,0.009958447,0.132365971,0.193860323,0.087843272,Subject C,neutral
-0.032438406,-0.227838065,0.094455654,0.232328239,-0.304981007,Subject C,neutral
-0.031964972,-0.105679512,0.097787137,0.407880368,-0.412719464,Subject C,neutral
-0.031515741,0.019536066,0.119170977,0.555349507,-0.217091182,Subject C,neutral
-0.031123567,-0.170735783,0.113439639,0.526543736,-0.054882194,Subject C,neutral
-0.030770433,-0.482879631,0.059747389,0.370121578,-0.153676957,Subject C,neutral
-0.030416016,-0.46124983,-0.011739965,0.261109702,-0.34367631,Subject C,neutral
-0.030038644,-0.031370676,-0.047830514,0.275499771,-0.328740037,Subject C,neutral
-0.029644771,0.33795923,-0.032497852,0.303834993,-0.131985227,Subject C,neutral
-0.029248969,0.196801478,-0.012438099,0.21029588,-0.090433758,Subject C,neutral
-0.028855598,-0.320016601,-0.052712914,0.026228305,-0.394087946,Subject C,neutral
-0.028459185,-0.658517718,-0.16775278,-0.075105721,-0.794280795,Subject C,neutral
-0.028054594,-0.529108387,-0.305029447,0.003568309,-0.888072924,Subject C,neutral
-0.027642222,-0.232924454,-0.398701956,0.14978072,-0.620140244,Subject C,neutral
-0.027225177,-0.234745672,-0.430910625,0.170593258,-0.352695813,Subject C,neutral
-0.026804943,-0.56137207,-0.43629584,0.027766306,-0.414093067,Subject C,neutral
-0.02638068,-0.805123851,-0.45603222,-0.121310806,-0.706901496,Subject C,neutral
-0.025951222,-0.697755855,-0.4982583,-0.127935983,-0.867022946,Subject C,neutral
-0.02551651,-0.473540181,-0.540644901,-0.033889408,-0.747082857,Subject C,neutral
-0.025077248,-0.5405435,-0.560277536,0.00185436,-0.589929231,Subject C,neutral
-0.024633925,-0.914834769,-0.555228929,-0.075046294,-0.680710132,Subject C,neutral
-0.024186502,-1.189015766,-0.540290581,-0.141517609,-0.954391564,Subject C,neutral
-0.023734785,-1.082579507,-0.529191648,-0.066957096,-1.086362009,Subject C,neutral
-0.023278783,-0.834144613,-0.526929191,0.104096065,-0.941677762,Subject C,neutral
-0.022818706,-0.900574813,-0.536945097,0.201589541,-0.769755668,Subject C,neutral
-0.022354748,-1.348562233,-0.564264309,0.144881475,-0.87007114,Subject C,neutral
-0.021886993,-1.739862181,-0.605067512,0.034630715,-1.177264205,Subject C,neutral
-0.02141547,-1.674103686,-0.642551903,0.003507453,-1.335268962,Subject C,neutral
-0.020940247,-1.29046059,-0.664027981,0.037352823,-1.1679475,Subject C,neutral
-0.020461436,-1.070540779,-0.675336974,0.012183089,-0.908900567,Subject C,neutral
-0.019979153,-1.197199785,-0.685228485,-0.113889404,-0.877595948,Subject C,neutral
-0.019493492,-1.319624967,-0.681727611,-0.229529874,-1.04257628,Subject C,neutral
-0.019004532,-1.043066891,-0.643000206,-0.221028847,-1.066307514,Subject C,neutral
-0.018512356,-0.486045382,-0.571840659,-0.132297958,-0.771588594,Subject C,neutral
-0.018017059,-0.145952811,-0.498881189,-0.106465708,-0.396346045,Subject C,neutral
-0.01751874,-0.244505607,-0.444074266,-0.184872855,-0.285983929,Subject C,neutral
-0.017017491,-0.431685999,-0.392679051,-0.240807011,-0.427939414,Subject C,neutral
-0.016513405,-0.248594854,-0.321896904,-0.146219182,-0.45108971,Subject C,neutral
-0.016006572,0.265070728,-0.237401105,0.04680772,-0.103827734,Subject C,neutral
-0.015497085,0.622440975,-0.165651017,0.152934502,0.408889402,Subject C,neutral
-0.014985039,0.528173569,-0.114902611,0.075246391,0.672990802,Subject C,neutral
-0.01447053,0.260902094,-0.061634164,-0.075482261,0.579157076,Subject C,neutral
-0.013953649,0.296715096,0.018473062,-0.11105792,0.435788131,Subject C,neutral
-0.013434488,0.669264558,0.115115672,0.014270503,0.541665573,Subject C,neutral
-0.012913139,0.910553493,0.1878028,0.159655763,0.789923071,Subject C,neutral
-0.012389693,0.658519376,0.206356031,0.178145699,0.825274341,Subject C,neutral
-0.011864243,0.142278774,0.184411414,0.09575932,0.532461958,Subject C,neutral
-0.011336878,-0.089396385,0.172798895,0.066281314,0.193488601,Subject C,neutral
-0.010807689,0.154724389,0.220599366,0.164729398,0.107849339,Subject C,neutral
-0.010276767,0.500897083,0.338602501,0.290561139,0.202226396,Subject C,neutral
-0.0097442,0.525095431,0.492427317,0.304548474,0.164055569,Subject C,neutral
-0.009210079,0.299286697,0.625688666,0.212068382,-0.08960959,Subject C,neutral
-0.008674493,0.258398432,0.692689762,0.149655486,-0.257380245,Subject C,neutral
-0.008137529,0.588586472,0.679258614,0.201388999,-0.039472522,Subject C,neutral
-0.007599272,0.962691076,0.604309626,0.294027425,0.438925776,Subject C,neutral
-0.007059809,0.972243348,0.50650001,0.302376488,0.738045823,Subject C,neutral
-0.006519222,0.676224713,0.423280707,0.214710364,0.634903592,Subject C,neutral
-0.005977595,0.534552124,0.372293304,0.139084029,0.405170382,Subject C,neutral
-0.005435009,0.808833923,0.347909553,0.14938015,0.478778601,Subject C,neutral
-0.004891546,1.214322229,0.335683142,0.178883506,0.885257852,Subject C,neutral
-0.004347284,1.275444564,0.327731272,0.103200057,1.187589036,Subject C,neutral
-0.003802304,0.91704669,0.321005271,-0.093642901,0.997984479,Subject C,neutral
-0.003256683,0.52732646,0.307232672,-0.285628215,0.438319563,Subject C,neutral
-0.0027105,0.436281202,0.27845167,-0.349216822,-0.01732934,Subject C,neutral
-0.002163832,0.51804026,0.244765165,-0.299821118,-0.100392031,Subject C,neutral
-0.001616755,0.432424996,0.232105409,-0.24526893,-0.002420152,Subject C,neutral
-0.001069346,0.141966918,0.251307308,-0.226310396,-0.045160752,Subject C,neutral
-0.000521677,-0.024633859,0.27659207,-0.167707824,-0.242978759,Subject C,neutral
2.62e-05,0.154495382,0.26838809,-0.009907282,-0.328447934,Subject C,neutral
0.000574148,0.456896408,0.21905881,0.167227889,-0.15441173,Subject C,neutral
0.001122161,0.497102722,0.165174614,0.217701073,0.103045135,Subject C,neutral
0.001670148,0.248090879,0.147336214,0.115360313,0.198538153,Subject C,neutral
0.002218041,0.087704336,0.165560558,-0.000822556,0.148324185,Subject C,neutral
0.002765772,0.297765185,0.186464837,0.007048325,0.178384819,Subject C,neutral
0.003313275,0.681047448,0.190519992,0.113273499,0.37862972,Subject C,neutral
0.003860485,0.806233046,0.193273248,0.177709655,0.557817449,Subject C,neutral
0.004407335,0.563219841,0.212619245,0.131899002,0.511330294,Subject C,neutral
0.004953764,0.304262315,0.232707631,0.057552421,0.334599263,Subject C,neutral
0.005499706,0.383657459,0.218808732,0.066613894,0.327728518,Subject C,neutral
0.006045098,0.688616624,0.161981735,0.148870674,0.582425945,Subject C,neutral
0.006589877,0.772210279,0.092337088,0.185037077,0.807202615,Subject C,neutral
0.007133978,0.42940317,0.048521126,0.105564327,0.676519458,Subject C,neutral
0.007677339,-0.018991946,0.045906438,-0.011426843,0.284504719,Subject C,neutral
0.008219897,-0.106657279,0.073628217,-0.032388791,0.083125103,Subject C,neutral
0.008761589,0.211401703,0.110533896,0.064148865,0.328744423,Subject C,neutral
0.009302353,0.526243665,0.140378508,0.159282172,0.738583503,Subject C,neutral
0.009842127,0.507922544,0.157355275,0.141168133,0.827853257,Subject C,neutral
0.010380846,0.305475349,0.160000952,0.037773729,0.512301529,Subject C,neutral
0.010918448,0.301382557,0.141464179,-0.032817704,0.197873167,Subject C,neutral
0.011454866,0.565545256,0.093915252,-0.021072167,0.242961109,Subject C,neutral
0.011990036,0.750196988,0.030263023,-0.00127228,0.495720337,Subject C,neutral
0.012523892,0.572279913,-0.004918485,-0.053437643,0.504972755,Subject C,neutral
0.013056366,0.227833557,0.03554566,-0.133117768,0.123484086,Subject C,neutral
0.01358739,0.155637514,0.149474237,-0.110738635,-0.283659073,Subject C,neutral
0.014116897,0.446976167,0.269135711,0.055491493,-0.293959093,Subject C,neutral
0.014644815,0.705431759,0.312881887,0.234860698,0.04839473,Subject C,neutral
0.015171072,0.571998146,0.258526012,0.257880323,0.313818788,Subject C,neutral
0.015695595,0.217285087,0.15844284,0.11801572,0.248324016,Subject C,neutral
0.016218309,0.124100654,0.080865092,-0.020326744,0.070472406,Subject C,neutral
0.016739134,0.4370285,0.048197173,-0.029950029,0.135783072,Subject C,neutral
0.017257994,0.747260528,0.038160996,0.026206476,0.444100332,Subject C,neutral
0.017774808,0.607261142,0.029749295,0.002341019,0.646815911,Subject C,neutral
0.018289496,0.107049022,0.030323009,-0.11350893,0.521131588,Subject C,neutral
0.018801978,-0.231860735,0.060055917,-0.175208573,0.265456304,Subject C,neutral
0.019312172,-0.100428837,0.123247443,-0.07896282,0.231185551,Subject C,neutral
0.019819996,0.241769813,0.198788605,0.090434224,0.461117966,Subject C,neutral
0.020325368,0.333650805,0.254191632,0.166255901,0.64800144,Subject C,neutral
0.020828206,0.106253912,0.26889693,0.109460212,0.554621085,Subject C,neutral
0.021328426,-0.062389656,0.247790781,0.040069254,0.324138993,Subject C,neutral
0.021825943,0.124896652,0.211442788,0.060040581,0.270324905,Subject C,neutral
0.022320674,0.485705154,0.171051296,0.114847345,0.442853025,Subject C,neutral
0.022812534,0.608173964,0.117822212,0.078104284,0.55896304,Subject C,neutral
0.023301439,0.400981467,0.043480708,-0.06072273,0.38992843,Subject C,neutral
0.023787303,0.203815679,-0.034046783,-0.163147601,0.076489873,Subject C,neutral
0.024270042,0.316186043,-0.07896649,-0.112987945,-0.05269456,Subject C,neutral
0.024749572,0.583683862,-0.075156142,0.032975258,0.086544463,Subject C,neutral
0.025225809,0.602231066,-0.045773987,0.116003493,0.233399362,Subject C,neutral
0.025698668,0.267199114,-0.029451091,0.076412708,0.146577894,Subject C,neutral
0.026168065,-0.075849218,-0.042431078,0.020588112,-0.060194231,Subject C,neutral
0.026633916,-0.087522474,-0.069213823,0.068279334,-0.065718682,Subject C,neutral
0.027096138,0.119294807,-0.08629981,0.186843571,0.222313771,Subject C,neutral
0.027554646,0.153300155,-0.089055052,0.234316898,0.52305098,Subject C,neutral
0.028009359,-0.096096501,-0.095055962,0.151099204,0.529789818,Subject C,neutral
0.028460193,-0.284073184,-0.123581345,0.041858554,0.307132661,Subject C,neutral
0.028907065,-0.076660035,-0.172047253,0.038996399,0.224505377,Subject C,neutral
0.029349893,0.364773538,-0.211620187,0.130002058,0.498722521,Subject C,neutral
0.029788596,0.555916761,-0.207611,0.176649723,0.917194261,Subject C,neutral
0.030223094,0.319416212,-0.149878609,0.100497044,1.088535852,Subject C,neutral
0.030653308,0.031372372,-0.068860729,-0.009826466,0.902566854,Subject C,neutral
0.031079159,0.127278136,-0.019312508,-0.01437536,0.628875875,Subject C,neutral
0.031500569,0.506854446,-0.037411332,0.087225325,0.556773402,Subject C,neutral
0.031917461,0.641106312,-0.106586796,0.143704899,0.654228058,Subject C,neutral
0.032329758,0.263771472,-0.169291206,0.04329683,0.667963832,Subject C,neutral
0.032737385,-0.257127519,-0.177911087,-0.139000005,0.498798154,Subject C,neutral
0.033140265,-0.365895491,-0.132975257,-0.233236822,0.336341699,Subject C,neutral
0.033538324,-0.012084795,-0.071202804,-0.186998034,0.374938764,Subject C,neutral
0.03393149,0.305426037,-0.024158055,-0.122951725,0.508135419,Subject C,neutral
0.034319689,0.190132438,0.005376676,-0.170288527,0.440108037,Subject C,neutral
0.03470285,-0.158738222,0.034536229,-0.29076486,0.091029428,Subject C,neutral
0.035080902,-0.23872364,0.080731344,-0.325555455,-0.243194769,Subject C,neutral
0.035453777,0.086355086,0.148256569,-0.206033289,-0.218458903,Subject C,neutral
0.035821406,0.420586134,0.220384834,-0.055732946,0.137020032,Subject C,neutral
0.036183721,0.369123996,0.263005181,-0.041301016,0.447124762,Subject C,neutral
0.036540657,0.05604014,0.251065684,-0.155283044,0.443770352,Subject C,neutral
0.036892149,-0.042875602,0.199513173,-0.21338845,0.285412155,Subject C,neutral
0.037238132,0.279882427,0.157894653,-0.078701269,0.328074383,Subject C,neutral
0.037578543,0.69894886,0.163993936,0.167551443,0.636803576,Subject C,neutral
0.037913317,0.778025732,0.205051316,0.319758532,0.873591233,Subject C,neutral
0.038242391,0.518433508,0.228981889,0.281498693,0.72024501,Subject C,neutral
0.038565702,0.328030131,0.192379083,0.150902339,0.291668203,Subject C,neutral
