timestamps,TP9,AF7,AF8,TP10,Subject,Emotion
0.036673064,2.046172584,-1.513041148,-0.645965772,2.130830007,Subject C,neutral
0.036582059,2.398945501,-1.552825372,-0.43033706,2.39837281,Subject C,neutral
0.036484426,2.417350844,-1.552096423,-0.296707642,2.641763095,Subject C,neutral
0.036380133,2.110447198,-1.471936152,-0.242623849,2.541714849,Subject C,neutral
0.036269152,1.944911478,-1.352985723,-0.168980509,2.257308181,Subject C,neutral
0.036151455,2.236384793,-1.260763215,-0.030601726,2.211412113,Subject C,neutral
0.036027015,2.719472146,-1.19811993,0.112121627,2.512398212,Subject C,neutral
0.035895807,2.874028949,-1.118709769,0.204192204,2.778837039,Subject C,neutral
0.035757807,2.579515818,-1.014974377,0.303497308,2.603744972,Subject C,neutral
0.035612992,2.242557305,-0.93903635,0.525417058,2.068421946,Subject C,neutral
0.035461343,2.256520846,-0.928439028,0.883702068,1.669067034,Subject C,neutral
0.03530284,2.525880314,-0.954543533,1.231724555,1.766355562,Subject C,neutral
0.035137467,2.657308964,-0.964513613,1.401894935,2.227010827,Subject C,neutral
0.034965208,2.506349014,-0.948731671,1.403191028,2.63929686,Subject C,neutral
0.03478605,2.327820432,-0.947979834,1.439707895,2.780545908,Subject C,neutral
0.034599981,2.367018887,-1.009683806,1.695388837,2.772773903,Subject C,neutral
0.034406989,2.496802617,-1.151630528,2.118927479,2.817069127,Subject C,neutral
0.034207068,2.410791251,-1.353280585,2.482384048,2.920549521,Subject C,neutral
0.034000209,2.094608926,-1.560730637,2.664959864,2.964851942,Subject C,neutral
0.033786408,1.90424831,-1.703344813,2.805090893,2.952204803,Subject C,neutral
0.03356566,2.108752647,-1.726906079,3.107627465,3.026072612,Subject C,neutral
0.033337963,2.495200703,-1.628198524,3.5476633,3.221133087,Subject C,neutral
0.033103318,2.589429537,-1.466958898,3.873043992,3.326077165,Subject C,neutral
0.032861726,2.242845269,-1.342819675,3.923366045,3.106589668,Subject C,neutral
0.03261319,1.827707691,-1.338128441,3.846707732,2.616511046,Subject C,neutral
0.032357714,1.772244258,-1.453736304,3.910594162,2.171485356,Subject C,neutral
0.032095307,2.028609246,-1.59860652,4.147534574,1.99696623,Subject C,neutral
0.031825978,2.158029482,-1.668707163,4.310131158,1.985619644,Subject C,neutral
0.031549738,1.91338422,-1.650633444,4.195093179,1.854244381,Subject C,neutral
0.031266604,1.557734583,-1.629709014,3.902529153,1.496750443,Subject C,neutral
0.030976592,1.510207724,-1.678340735,3.706310283,1.109345658,Subject C,neutral
0.03067972,1.788271814,-1.757200067,3.733571198,0.953992699,Subject C,neutral
0.030376008,1.978607351,-1.767547128,3.855322019,1.059355274,Subject C,neutral
0.030065477,1.779314907,-1.704458078,3.868398772,1.219939557,Subject C,neutral
0.029748151,1.405217889,-1.70858919,3.703939759,1.275110274,Subject C,neutral
0.029424054,1.315858796,-1.918411382,3.44463581,1.302039896,Subject C,neutral
0.029093212,1.608684539,-2.278442005,3.205327979,1.476778638,Subject C,neutral
0.028755652,1.868472404,-2.543797089,3.047127065,1.788059607,Subject C,neutral
0.028411403,1.682331764,-2.515828167,2.980088908,1.987084358,Subject C,neutral
0.028060493,1.170255616,-2.271520036,2.989608093,1.872355468,Subject C,neutral
0.027702953,0.853637089,-2.11650743,3.047693609,1.569728713,Subject C,neutral
0.027338814,1.017680887,-2.266271464,3.138669091,1.420681663,Subject C,neutral
0.026968109,1.363685838,-2.58801744,3.299143389,1.566579694,Subject C,neutral
0.026590871,1.390290073,-2.731483636,3.607148578,1.755158358,Subject C,neutral
0.026207134,1.020843773,-2.543347922,4.095832808,1.658745302,Subject C,neutral
0.025816933,0.67042087,-2.264403644,4.674512787,1.308226165,Subject C,neutral
0.025420303,0.673219622,-2.229458266,5.161195243,1.052897823,Subject C,neutral
0.025017283,0.845954678,-2.443178058,5.429942569,1.087335807,Subject C,neutral
0.024607912,0.781051048,-2.600030675,5.547383536,1.192575107,Subject C,neutral
0.024192231,0.45496267,-2.5109546,5.738867315,1.054469386,Subject C,neutral
0.023770283,0.286215628,-2.333886415,6.173145519,0.717059106,Subject C,neutral
0.023342113,0.535927659,-2.310598076,6.779412816,0.525163024,Subject C,neutral
0.022907769,0.880090975,-2.423009059,7.311061513,0.623025914,Subject C,neutral
0.022467301,0.788293709,-2.445977011,7.576580331,0.726333889,Subject C,neutral
0.02202076,0.245883896,-2.264366365,7.561473162,0.525227509,Subject C,neutral
0.021568198,-0.156740263,-1.994172513,7.366421678,0.166786757,Subject C,neutral
0.021109671,0.063456526,-1.811765102,7.160676357,0.10608549,Subject C,neutral
0.020645236,0.67881243,-1.795658297,7.220116698,0.491419459,Subject C,neutral
0.020174951,1.055106816,-1.942954987,7.789586212,0.940492046,Subject C,neutral
0.019698877,0.963474566,-2.193440977,8.65110937,1.042772375,Subject C,neutral
0.019217076,0.814542027,-2.36768591,8.917069132,0.889993716,Subject C,neutral
0.018729614,1.014767162,-2.22273914,7.704455331,0.889388024,Subject C,neutral
0.018236554,1.359939275,-1.732179353,5.275988662,1.153691304,Subject C,neutral
0.017737964,1.334864446,-1.260704741,3.126146809,1.369290717,Subject C,neutral
0.017233914,0.902382527,-1.273887903,2.442304706,1.313273474,Subject C,neutral
0.016724475,0.635067969,-1.810259428,2.805561749,1.215551818,Subject C,neutral
0.016209722,0.941535824,-2.344889294,3.115559842,1.40097342,Subject C,neutral
0.015689731,1.438289108,-2.263003601,3.50011165,1.731270262,Subject C,neutral
0.015164582,1.379775066,-1.449902204,5.271097812,1.690779496,Subject C,neutral
0.014634356,0.63244282,-0.381068495,8.850058115,1.057198304,Subject C,neutral
0.01409914,-0.091351824,0.348169602,12.51492549,0.262408398,Subject C,neutral
0.013559021,-0.073983551,0.549513658,13.55574552,-0.058962363,Subject C,neutral
0.01301409,0.563437337,0.52049041,10.59765635,0.228965017,Subject C,neutral
0.012464444,1.074690793,0.675268695,5.038766139,0.676220957,Subject C,neutral
0.011910184,1.030185387,1.162697859,0.332337305,0.824489443,Subject C,neutral
0.011351416,0.752883588,1.816469511,-0.734399014,0.688629748,Subject C,neutral
0.010788246,0.759500696,2.369041872,1.345532896,0.600168207,Subject C,neutral
0.010220778,1.04101169,2.659845786,3.057058051,0.72732318,Subject C,neutral
0.00964912,1.14155301,2.701710154,1.2275466,0.916518942,Subject C,neutral
0.009073396,0.852703232,2.628798556,-3.843613183,0.971513657,Subject C,neutral
0.008493736,0.53861976,2.57546132,-8.894001959,0.921184829,Subject C,neutral
0.00791026,0.666307008,2.554223657,-11.14267017,0.943223396,Subject C,neutral
0.007323064,1.191998069,2.445718778,-10.69868261,1.113325447,Subject C,neutral
0.006732257,1.617313685,2.136349942,-9.626169582,1.330730205,Subject C,neutral
0.006137992,1.623517881,1.661963965,-9.417526121,1.478342474,Subject C,neutral
0.005540462,1.429103306,1.200276214,-9.855074268,1.552363426,Subject C,neutral
0.00493981,1.391770253,0.953856689,-9.883075648,1.558888075,Subject C,neutral
0.004336068,1.415480458,1.060185516,-8.7831498,1.345634643,Subject C,neutral
0.003729258,1.038123943,1.528466596,-6.289699046,0.708664233,Subject C,neutral
0.003119599,0.160134755,2.164920316,-2.260117815,-0.243866611,Subject C,neutral
0.00250752,-0.588660454,2.624738816,2.848512585,-0.962164069,Subject C,neutral
0.001893294,-0.469478552,2.69908675,7.257347191,-0.8949661,Subject C,neutral
0.001276668,0.454545988,2.580652688,8.779247217,-0.098749206,Subject C,neutral
0.000657175,1.294286753,2.729180899,7.057222684,0.727134942,Subject C,neutral
3.51e-05,1.294501319,3.403370242,4.091577783,0.906709175,Subject C,neutral
-0.000588127,0.633976332,4.365161496,1.941611209,0.439266518,Subject C,neutral
-0.001211452,0.133366424,5.08364987,0.678151171,-0.074437056,Subject C,neutral
-0.001836116,0.284085246,5.208345036,-0.811219056,-0.105815151,Subject C,neutral
-0.002464985,0.770440669,4.826051839,-2.861219649,0.293666388,Subject C,neutral
-0.003098221,0.97033304,4.292686391,-4.631043807,0.657940364,Subject C,neutral
-0.00373045,0.73879661,3.869181823,-5.038442596,0.684557089,Subject C,neutral
-0.004355965,0.523746711,3.537213082,-3.514167948,0.553055381,Subject C,neutral
-0.004978896,0.734930555,3.141332818,-0.472306103,0.642460058,Subject C,neutral
-0.005613582,1.189110838,2.665577981,2.430058736,1.004233929,Subject C,neutral
-0.006266246,1.334996267,2.32259096,3.251133105,1.25444923,Subject C,neutral
-0.006914991,0.979463869,2.334933342,1.836943795,1.059824805,Subject C,neutral
-0.007519263,0.579424149,2.643250564,0.557466422,0.616217589,Subject C,neutral
-0.00806082,0.6841215,2.896926455,2.115211847,0.460204707,Subject C,neutral
-0.008572292,1.218031034,2.778160623,6.608993992,0.804009995,Subject C,neutral
-0.009113416,1.550871662,2.310670778,11.36261704,1.253367561,Subject C,neutral
-0.009716819,1.292596484,1.812576544,13.72086203,1.294026814,Subject C,neutral
-0.010364259,0.780909887,1.565113328,13.47109003,0.918292223,Subject C,neutral
-0.011015181,0.633329193,1.561335411,12.38009609,0.602133053,Subject C,neutral
-0.011647682,0.983063624,1.551903715,11.99699997,0.723878791,Subject C,neutral
-0.012267981,1.394679722,1.289591306,12.42412504,1.183826897,Subject C,neutral
-0.012890414,1.483805379,0.757756334,12.9037456,1.604634676,Subject C,neutral
-0.013519107,1.346663768,0.217756855,12.93966085,1.740656909,Subject C,neutral
-0.014148347,1.280070614,-0.01028868,12.68000572,1.618385285,Subject C,neutral
-0.01477276,1.308188231,0.094183109,12.54223917,1.406881352,Subject C,neutral
-0.015392503,1.232387917,0.156751346,12.728992,1.288555314,Subject C,neutral
-0.016010442,1.070279674,-0.182332431,13.05153584,1.406333155,Subject C,neutral
-0.016627824,1.143130718,-0.77280613,13.11724986,1.779113522,Subject C,neutral
-0.017243569,1.599020278,-1.053870672,12.77032867,2.215251177,Subject C,neutral
-0.017856271,2.041770908,-0.695101027,12.43103834,2.396185622,Subject C,neutral
-0.018465635,1.877619152,0.039954918,12.78999078,2.132003106,Subject C,neutral
-0.019072123,1.037030599,0.63574558,13.8277567,1.549299361,Subject C,neutral
-0.019675986,0.168612059,0.841053905,14.20578061,1.016497519,Subject C,neutral
-0.020276949,-0.004387199,0.736082457,12.20604984,0.859943395,Subject C,neutral
-0.020874581,0.544382996,0.463553461,7.693885448,1.098573915,Subject C,neutral
-0.021468657,1.14292293,0.089661833,2.892446215,1.426609577,Subject C,neutral
-0.022059152,1.192781422,-0.308425298,0.718962739,1.491941897,Subject C,neutral
-0.022646028,0.802195951,-0.580552829,2.262761681,1.229249134,Subject C,neutral
-0.023229133,0.557536769,-0.615888431,6.023041919,0.908996938,Subject C,neutral
-0.023808265,0.775885588,-0.503088897,9.426912671,0.846639492,Subject C,neutral
-0.024383256,1.176767598,-0.505745694,10.75009843,1.084176478,Subject C,neutral
-0.024953984,1.306656867,-0.789144305,9.753723035,1.371397591,Subject C,neutral
-0.025520336,1.089987719,-1.163895149,7.251761543,1.435938067,Subject C,neutral
-0.026082174,0.812895035,-1.208548881,4.532937719,1.232596163,Subject C,neutral
-0.026639349,0.663750931,-0.728233747,2.697763091,0.918673513,Subject C,neutral
-0.027191715,0.514173981,-0.042627692,1.824404672,0.641704112,Subject C,neutral
-0.027739141,0.223969357,0.261247835,0.859709498,0.440213286,Subject C,neutral
-0.028281499,-0.014370349,-0.124222902,-1.110417168,0.347837793,Subject C,neutral
-0.028818658,0.138062531,-0.924252878,-3.470288222,0.445039498,Subject C,neutral
-0.029350486,0.627467306,-1.501404699,-4.486598022,0.688315348,Subject C,neutral
-0.029876852,0.892014991,-1.411099282,-3.33642973,0.793891057,Subject C,neutral
-0.03039763,0.494695411,-0.829601935,-1.327441628,0.514580508,Subject C,neutral
-0.030912694,-0.21946918,-0.454500517,-0.642443683,0.064611632,Subject C,neutral
-0.031421923,-0.397284405,-0.88089488,-1.937977213,0.032045255,Subject C,neutral
-0.031925192,0.274354319,-1.968368514,-3.659481572,0.66763197,Subject C,neutral
-0.03242238,1.041705641,-2.847264702,-3.956606297,1.394131687,Subject C,neutral
-0.032913366,0.893534018,-2.667955021,-2.883719409,1.326896423,Subject C,neutral
-0.033398032,-0.196151662,-1.40304298,-2.18004243,0.320610163,Subject C,neutral
-0.033876261,-1.182238425,0.123168742,-2.973199409,-0.769426596,Subject C,neutral
-0.034347939,-1.174457076,1.001340972,-4.381065599,-1.004842266,Subject C,neutral
-0.034812951,-0.423362435,0.974445777,-4.760926865,-0.351485973,Subject C,neutral
-0.035271187,0.138002636,0.438813464,-3.885287868,0.41905667,Subject C,neutral
-0.035722536,0.098494954,-0.112173619,-3.203822863,0.67173906,Subject C,neutral
-0.036166891,-0.058351965,-0.48864829,-3.975428973,0.502130686,Subject C,neutral
-0.036604147,0.222854799,-0.710745526,-5.779709142,0.382328108,Subject C,neutral
-0.037034202,0.755634834,-0.748460953,-7.174359255,0.467001566,Subject C,neutral
-0.037456955,0.881900425,-0.51594708,-7.389749362,0.467407097,Subject C,neutral
-0.037872308,0.388509566,-0.070013343,-6.918910234,0.156677325,Subject C,neutral
-0.038280164,-0.180994275,0.336551914,-6.626703971,-0.235074233,Subject C,neutral
-0.03868043,-0.195379692,0.454030213,-6.777171582,-0.252740118,Subject C,neutral
-0.039073014,0.315939706,0.2468821,-7.035458188,0.243220313,Subject C,neutral
-0.039457824,0.760171371,-0.101190235,-7.078243056,0.891976889,Subject C,neutral
-0.039834772,0.730347811,-0.346996531,-6.931889371,1.195978388,Subject C,neutral
-0.040203773,0.443955134,-0.345646352,-6.797635063,0.998531677,Subject C,neutral
-0.04056474,0.376720131,-0.109234045,-6.767402298,0.565678293,Subject C,neutral
-0.040917591,0.624871381,0.228308552,-6.780442401,0.247424472,Subject C,neutral
-0.041262245,0.826873279,0.487618339,-6.763681476,0.148688902,Subject C,neutral
-0.041598625,0.709503855,0.521622125,-6.720061997,0.159375845,Subject C,neutral
-0.041926652,0.49684333,0.301495468,-6.681970902,0.216892345,Subject C,neutral
-0.042246253,0.610844074,-7.66e-05,-6.640414886,0.407828969,Subject C,neutral
-0.042557354,1.050764319,-0.051029072,-6.561314618,0.771993686,Subject C,neutral
-0.042859887,1.296504458,0.366861448,-6.455949491,1.100449726,Subject C,neutral
-0.043153781,0.9193406,1.049441794,-6.389988203,1.065338448,Subject C,neutral
-0.043438971,0.151667667,1.444815962,-6.401840432,0.597797059,Subject C,neutral
-0.043715393,-0.330772751,1.192175774,-6.438087274,0.040450359,Subject C,neutral
-0.043982984,-0.198137154,0.582703384,-6.40752208,-0.209347932,Subject C,neutral
-0.044241686,0.134224028,0.348966703,-6.298778005,-0.191910966,Subject C,neutral
-0.044491445,0.027327053,0.928314533,-6.206146294,-0.350243384,Subject C,neutral
-0.044732206,-0.557155007,2.002762641,-6.212856973,-0.925748665,Subject C,neutral
-0.04496392,-0.982226514,2.829567025,-6.271442985,-1.556495505,Subject C,neutral
-0.04518654,-0.7369513,2.963785455,-6.247866984,-1.666003584,Subject C,neutral
-0.045400022,-0.089902076,2.569352369,-6.099016505,-1.176888685,Subject C,neutral
-0.045604321,0.254742583,2.086487305,-5.960000703,-0.614345167,Subject C,neutral
-0.045799399,0.037378568,1.77224179,-5.991241596,-0.470236654,Subject C,neutral
-0.045985215,-0.287404287,1.621956593,-6.138314502,-0.661439232,Subject C,neutral
-0.046161733,-0.195703121,1.584418554,-6.130402917,-0.737840653,Subject C,neutral
-0.046328918,0.235244005,1.678774116,-5.798169199,-0.497202648,Subject C,neutral
-0.046486736,0.48547493,1.897874621,-5.346063598,-0.19945025,Subject C,neutral
-0.046635156,0.304972514,2.114002553,-5.167203721,-0.165102601,Subject C,neutral
-0.046774148,0.016719218,2.152412857,-5.351824127,-0.339816281,Subject C,neutral
-0.046903684,0.050615969,1.948133458,-5.536705165,-0.392894882,Subject C,neutral
-0.047023735,0.378088965,1.614270965,-5.377254369,-0.176914406,Subject C,neutral
-0.047134276,0.601639805,1.358012481,-5.047617673,0.085672116,Subject C,neutral
-0.047235281,0.531735612,1.307075126,-5.031462238,0.119255783,Subject C,neutral
-0.047326725,0.437501574,1.384722873,-5.404728772,-0.032606831,Subject C,neutral
-0.047408585,0.641804928,1.374672905,-5.592788663,-0.07112847,Subject C,neutral
-0.047480837,1.033437508,1.161874463,-5.045024795,0.152242287,Subject C,neutral
-0.04754346,1.16423913,0.897413172,-4.023258588,0.409474623,Subject C,neutral
-0.047596433,0.814331844,0.843460467,-3.41723411,0.345238808,Subject C,neutral
-0.047639738,0.303920392,1.026592401,-3.688576384,-0.071515215,Subject C,neutral
-0.047673358,0.148652647,1.137376286,-4.252180501,-0.437416378,Subject C,neutral
-0.047697279,0.462253823,0.87659605,-4.175853505,-0.33646508,Subject C,neutral
-0.047711488,0.820375686,0.369558866,-3.391799289,0.15539591,Subject C,neutral
-0.047715973,0.754053855,0.104381095,-2.846201063,0.507025191,Subject C,neutral
-0.047710726,0.286663384,0.400956543,-3.334790155,0.319612582,Subject C,neutral
-0.047695741,-0.130576071,1.02808792,-4.514135893,-0.238793758,Subject C,neutral
-0.047671012,-0.185613164,1.44177639,-5.342782018,-0.68689512,Subject C,neutral
-0.047636539,-0.033941185,1.359094694,-5.309741691,-0.803541011,Subject C,neutral
-0.047592321,0.024464699,0.988029644,-4.876132982,-0.759459331,Subject C,neutral
-0.047538364,0.023465285,0.712997045,-4.73102349,-0.722806383,Subject C,neutral
-0.04747467,0.25045049,0.705858009,-4.963761659,-0.592357699,Subject C,neutral
-0.047401249,0.724219127,0.894944263,-5.142851267,-0.244578555,Subject C,neutral
-0.047318108,1.0358971,1.15731591,-4.999309422,0.134466631,Subject C,neutral
-0.047225259,0.859659142,1.391575966,-4.745646344,0.193257545,Subject C,neutral
-0.047122714,0.441849319,1.477260945,-4.706644616,-0.123453369,Subject C,neutral
-0.047010487,0.337167428,1.348923014,-4.861765907,-0.451368446,Subject C,neutral
-0.046888592,0.687207194,1.144849444,-4.915870596,-0.437218966,Subject C,neutral
-0.046757046,1.005798133,1.14095117,-4.742417728,-0.181739566,Subject C,neutral
-0.046615865,0.792364234,1.439114768,-4.563972489,-0.115816764,Subject C,neutral
-0.046465067,0.186327204,1.794318007,-4.632069727,-0.457061742,Subject C,neutral
-0.046304672,-0.200405369,1.864254159,-4.853474824,-0.932504327,Subject C,neutral
-0.0461347,-0.058905407,1.609414833,-4.879276732,-1.114263202,Subject C,neutral
-0.045955177,0.24709178,1.336851924,-4.562152669,-0.939044672,Subject C,neutral
-0.045766129,0.184147508,1.33403538,-4.187861347,-0.761597249,Subject C,neutral
-0.045567586,-0.265225153,1.562034297,-4.147034423,-0.899387518,Subject C,neutral
-0.045359579,-0.638534699,1.758192049,-4.437379579,-1.264764927,Subject C,neutral
-0.045142143,-0.661778093,1.7563898,-4.650115968,-1.531911423,Subject C,neutral
-0.044915318,-0.622764772,1.623724676,-4.493403605,-1.579906618,Subject C,neutral
-0.044679141,-0.957205525,1.521962271,-4.175849172,-1.630937551,Subject C,neutral
-0.044433655,-1.637491693,1.523880117,-4.114496301,-1.941199173,Subject C,neutral
-0.044178904,-2.201964415,1.578427513,-4.330610474,-2.471247077,Subject C,neutral
-0.043914934,-2.367502733,1.598775066,-4.366617647,-2.939687277,Subject C,neutral
-0.043641792,-2.380417276,1.54928156,-3.902182071,-3.156181385,Subject C,neutral
-0.04335953,-2.646443792,1.462879292,-3.277947116,-3.218717712,Subject C,neutral
-0.0430682,-3.175096445,1.395424172,-3.167209262,-3.378368898,Subject C,neutral
-0.042767857,-3.601898669,1.363371742,-3.717367779,-3.772085748,Subject C,neutral
-0.042458561,-3.734081325,1.326880995,-4.24831015,-4.322319149,Subject C,neutral
-0.042140372,-3.85295972,1.245058997,-3.990327205,-4.8679017,Subject C,neutral
-0.041813355,-4.353459689,1.143881939,-3.032282777,-5.340002321,Subject C,neutral
-0.041477577,-5.197680103,1.105387063,-2.295411109,-5.779938313,Subject C,neutral
-0.04113311,-5.904385777,1.1789112,-2.514113055,-6.20529197,Subject C,neutral
-0.040780026,-6.103424546,1.319296759,-3.454374718,-6.531660426,Subject C,neutral
-0.040418402,-5.965333975,1.425514739,-4.274018124,-6.681610241,Subject C,neutral
-0.040048315,-5.966810376,1.431161598,-4.472648368,-6.724163776,Subject C,neutral
-0.039669845,-6.277594841,1.349185438,-4.260506918,-6.807131411,Subject C,neutral
-0.039283075,-6.540994613,1.240772232,-4.082650392,-6.945372894,Subject C,neutral
-0.038888089,-6.344384748,1.160888622,-4.07184005,-6.981019588,Subject C,neutral
-0.038484976,-5.791151285,1.137977243,-4.070377098,-6.811981459,Subject C,neutral
-0.038073824,-5.422433394,1.182915286,-3.997388961,-6.575117132,Subject C,neutral
-0.037654727,-5.560754045,1.282481198,-3.967180879,-6.489379191,Subject C,neutral
-0.03722778,-5.910108408,1.376032438,-4.033959006,-6.536826321,Subject C,neutral
-0.036793081,-5.931804254,1.37352444,-4.00612258,-6.434782909,Subject C,neutral
