timestamps,TP9,AF7,AF8,TP10,Subject,Emotion
0.045671448,0.649356415,-0.211293505,0.019890069,0.097736281,Subject A,neutral
0.0460814,0.603244371,-0.291892604,0.089153727,0.13663219,Subject A,neutral
0.046483996,0.389229967,-0.320801608,0.109339769,-0.019207562,Subject A,neutral
0.04687911,0.348888202,-0.299055411,0.098225382,-0.102387702,Subject A,neutral
0.047266615,0.572923881,-0.261131985,0.07728947,0.114012771,Subject A,neutral
0.047646388,0.768484155,-0.243447274,0.040437372,0.507973702,Subject A,neutral
0.048018303,0.659696653,-0.2591552,-0.02012478,0.749115298,Subject A,neutral
0.048382236,0.379960964,-0.298047642,-0.080467228,0.698073872,Subject A,neutral
0.048738066,0.317294916,-0.342588404,-0.104473106,0.525719278,Subject A,neutral
0.049085672,0.594831459,-0.379893822,-0.094152138,0.419414702,Subject A,neutral
0.049424934,0.858085752,-0.400454669,-0.093719801,0.317820119,Subject A,neutral
0.049755736,0.669908442,-0.394915594,-0.129868683,0.039134713,Subject A,neutral
0.050077964,0.050165858,-0.363223565,-0.166345818,-0.408648709,Subject A,neutral
0.050391508,-0.505716588,-0.325830496,-0.14160894,-0.778976649,Subject A,neutral
0.050696258,-0.56928781,-0.311261805,-0.046998808,-0.85138377,Subject A,neutral
0.050992109,-0.235443376,-0.322999381,0.055807939,-0.651970957,Subject A,neutral
0.051278958,0.037441952,-0.326244475,0.100965066,-0.382168837,Subject A,neutral
0.051556705,-0.030719415,-0.280475975,0.084570983,-0.197868478,Subject A,neutral
0.051825255,-0.281454684,-0.187379664,0.054305738,-0.10599777,Subject A,neutral
0.052084518,-0.392087147,-0.09915002,0.046340181,-0.037859958,Subject A,neutral
0.052334404,-0.277513386,-0.07383296,0.049883639,0.031334005,Subject A,neutral
0.052574829,-0.12878434,-0.123481833,0.032905478,0.039953728,Subject A,neutral
0.052805709,-0.110009721,-0.208313004,-0.012779956,-0.094928726,Subject A,neutral
0.053026966,-0.148361737,-0.278438314,-0.0614659,-0.364292688,Subject A,neutral
0.053238524,-0.079863031,-0.314948328,-0.082234698,-0.628282662,Subject A,neutral
0.053440312,0.077587899,-0.329909274,-0.065683982,-0.716183252,Subject A,neutral
0.053632257,0.122820621,-0.335940934,-0.020186628,-0.565856973,Subject A,neutral
0.053814295,-0.034377154,-0.3277469,0.045274625,-0.258750171,Subject A,neutral
0.053986358,-0.192642327,-0.296605515,0.119798406,0.048309086,Subject A,neutral
0.054148385,-0.085500141,-0.255295313,0.17514264,0.199484465,Subject A,neutral
0.054300316,0.250633499,-0.23735897,0.172890068,0.103769914,Subject A,neutral
0.054442094,0.472277848,-0.264355506,0.103893709,-0.191120931,Subject A,neutral
0.054573663,0.332413514,-0.314404038,0.013864944,-0.479348573,Subject A,neutral
0.054694971,-0.023396279,-0.331537181,-0.031043371,-0.523599658,Subject A,neutral
0.054805967,-0.254828893,-0.274770163,-0.01183825,-0.267777588,Subject A,neutral
0.054906604,-0.248428167,-0.156814933,0.022939674,0.077621643,Subject A,neutral
0.054996838,-0.207993345,-0.027685535,0.015548766,0.212831739,Subject A,neutral
0.055076626,-0.324916334,0.077202502,-0.031184102,0.041198412,Subject A,neutral
0.05514593,-0.501115009,0.161697588,-0.058849051,-0.241634952,Subject A,neutral
0.055204712,-0.495606369,0.241541305,-0.028081356,-0.374223373,Subject A,neutral
0.055252938,-0.273073986,0.306758984,0.029463459,-0.304609019,Subject A,neutral
0.055290577,-0.070470711,0.322913352,0.046266222,-0.194304204,Subject A,neutral
0.055317597,-0.099014702,0.268442084,-0.002294675,-0.19187954,Subject A,neutral
0.05533397,-0.291027249,0.164406037,-0.071621369,-0.289010152,Subject A,neutral
0.055339671,-0.422125358,0.062998902,-0.102654248,-0.399916716,Subject A,neutral
0.055334676,-0.425910364,0.003564634,-0.086873009,-0.492286692,Subject A,neutral
0.055318962,-0.470281058,-0.020728848,-0.064581752,-0.587970539,Subject A,neutral
0.05529251,-0.690377588,-0.04955872,-0.068281649,-0.681757413,Subject A,neutral
0.055255304,-0.936078627,-0.108739873,-0.087607096,-0.725203273,Subject A,neutral
0.055207331,-0.904152504,-0.183794886,-0.093683407,-0.691316107,Subject A,neutral
0.055148578,-0.544015941,-0.243572235,-0.080103088,-0.612653461,Subject A,neutral
0.055079039,-0.216413764,-0.278635559,-0.064548258,-0.541836272,Subject A,neutral
0.054998708,-0.313880566,-0.300723043,-0.056588198,-0.50323615,Subject A,neutral
0.054907585,-0.747725664,-0.307901401,-0.041121221,-0.497826774,Subject A,neutral
0.054805669,-0.986165947,-0.273187424,0.001066473,-0.521762398,Subject A,neutral
0.054692967,-0.690353816,-0.181560354,0.065738077,-0.547524017,Subject A,neutral
0.054569486,-0.169968013,-0.064998238,0.126723964,-0.510642806,Subject A,neutral
0.054435236,-0.022377035,0.020674794,0.163305333,-0.361851805,Subject A,neutral
0.054290233,-0.371391508,0.054504025,0.179310056,-0.13391662,Subject A,neutral
0.054134494,-0.700730011,0.069798919,0.19151065,0.074144577,Subject A,neutral
0.053968041,-0.525249623,0.1099673,0.202818099,0.181604037,Subject A,neutral
0.0537909,-0.021106443,0.178505779,0.196274184,0.178142641,Subject A,neutral
0.0536031,0.221893486,0.243100263,0.161908349,0.110012054,Subject A,neutral
0.053404673,-0.009170602,0.2820763,0.123376674,0.048560319,Subject A,neutral
0.053195654,-0.270468979,0.31289581,0.123390077,0.058613898,Subject A,neutral
0.052976082,-0.053309891,0.368743992,0.176895196,0.149905466,Subject A,neutral
0.052745999,0.544858299,0.450583184,0.249115711,0.252039338,Subject A,neutral
0.05250545,0.942970391,0.511201716,0.292134474,0.278845147,Subject A,neutral
0.052254482,0.80454798,0.49616004,0.3001287,0.2376808,Subject A,neutral
0.051993148,0.416980055,0.403680268,0.314566227,0.241152627,Subject A,neutral
0.051721501,0.278014444,0.297949993,0.369962931,0.376616564,Subject A,neutral
0.051439597,0.487068113,0.256323366,0.446251134,0.581050584,Subject A,neutral
0.051147497,0.716371315,0.302830013,0.488175693,0.686736017,Subject A,neutral
0.050845265,0.704791333,0.392144707,0.470392015,0.603373028,Subject A,neutral
0.050532969,0.567961766,0.450346974,0.429995555,0.429779884,Subject A,neutral
0.050210679,0.564451926,0.428555846,0.425258269,0.354133182,Subject A,neutral
0.049878467,0.710988555,0.331040867,0.467345556,0.443100486,Subject A,neutral
0.04953641,0.776823307,0.207815199,0.507549233,0.569261854,Subject A,neutral
0.049184586,0.626731881,0.118024053,0.498168265,0.581704458,Subject A,neutral
0.048823075,0.42661772,0.085486584,0.451771581,0.51770632,Subject A,neutral
0.048451959,0.432870781,0.082158495,0.421831652,0.569906425,Subject A,neutral
0.048071321,0.64273236,0.05836907,0.43056196,0.822347003,Subject A,neutral
0.047681249,0.774656538,-0.006412787,0.442727608,1.094286069,Subject A,neutral
0.047281831,0.62863078,-0.080571497,0.421290982,1.125735128,Subject A,neutral
0.046873158,0.367471927,-0.106699163,0.385214675,0.891507933,Subject A,neutral
0.046455325,0.33110903,-0.054472108,0.385691022,0.634028012,Subject A,neutral
0.046028426,0.59343147,0.045683799,0.432861568,0.563052237,Subject A,neutral
0.045592562,0.829211467,0.120766482,0.476587371,0.613288464,Subject A,neutral
0.045147833,0.687680179,0.114284057,0.469806867,0.561993625,Subject A,neutral
0.044694344,0.224538007,0.032907808,0.428024821,0.324322526,Subject A,neutral
0.044232203,-0.15050147,-0.064766297,0.405291306,0.041555041,Subject A,neutral
0.043761518,-0.158067358,-0.12150611,0.422549443,-0.115426598,Subject A,neutral
0.043282402,0.037967145,-0.118644157,0.445322659,-0.148211273,Subject A,neutral
0.04279497,0.083683214,-0.070315101,0.435565806,-0.188466264,Subject A,neutral
0.042299338,-0.08737919,-0.002254628,0.403880576,-0.284039443,Subject A,neutral
0.041795625,-0.195904836,0.056720596,0.394285879,-0.301734239,Subject A,neutral
0.041283952,-0.046999653,0.078825525,0.424824082,-0.091089619,Subject A,neutral
0.040764442,0.167109109,0.051089394,0.460266542,0.289343113,Subject A,neutral
0.04023722,0.132938991,-0.01227934,0.450147284,0.591657022,Subject A,neutral
0.03970241,-0.118767776,-0.075203248,0.387598557,0.648461234,Subject A,neutral
0.039160139,-0.215957386,-0.099474925,0.320608787,0.557566147,Subject A,neutral
0.038610536,0.058760697,-0.066788267,0.300386517,0.54318892,Subject A,neutral
0.038053727,0.442755854,0.006306691,0.324953489,0.675033569,Subject A,neutral
0.037489844,0.488721662,0.073797939,0.345713785,0.802125487,Subject A,neutral
0.036919016,0.115306229,0.092406425,0.329628381,0.765706729,Subject A,neutral
0.036341375,-0.285388799,0.056286157,0.297830682,0.604079975,Subject A,neutral
0.035757053,-0.319067508,-0.002708852,0.291952647,0.499468946,Subject A,neutral
0.035166183,-0.050747824,-0.049482022,0.316136124,0.552262662,Subject A,neutral
0.034568901,0.114805447,-0.075207323,0.331597257,0.663649258,Subject A,neutral
0.033965341,-0.024001786,-0.09363517,0.304629151,0.656090156,Subject A,neutral
0.033355642,-0.197868892,-0.117705059,0.241227602,0.480984045,Subject A,neutral
0.032739941,-0.036385697,-0.145705432,0.171174125,0.278721172,Subject A,neutral
0.032118379,0.393047314,-0.166326408,0.114282733,0.233627372,Subject A,neutral
0.031491096,0.611287266,-0.170816775,0.072243652,0.386006335,Subject A,neutral
0.030858234,0.337533099,-0.159272456,0.042414051,0.589496996,Subject A,neutral
0.030219935,-0.108130284,-0.13762662,0.022762995,0.638082004,Subject A,neutral
0.029576345,-0.182898723,-0.109941865,0.002571685,0.4348007,Subject A,neutral
0.028927609,0.181002436,-0.075109148,-0.036569162,0.059548387,Subject A,neutral
0.028273873,0.481159101,-0.034225555,-0.09894971,-0.318614578,Subject A,neutral
0.027615285,0.291980974,-0.001394102,-0.158710378,-0.60098291,Subject A,neutral
0.026951994,-0.191937459,-0.000254339,-0.178496978,-0.810118765,Subject A,neutral
0.026284148,-0.414054591,-0.041423092,-0.148636535,-0.966476396,Subject A,neutral
0.025611899,-0.156165977,-0.104096429,-0.100580728,-0.983827154,Subject A,neutral
0.024935397,0.213954053,-0.14954253,-0.075107394,-0.783430456,Subject A,neutral
0.024254796,0.212026214,-0.157404246,-0.081277234,-0.48569664,Subject A,neutral
0.02357025,-0.197759765,-0.141663435,-0.094835283,-0.360583118,Subject A,neutral
0.022881915,-0.602938047,-0.126246672,-0.096289352,-0.537520418,Subject A,neutral
0.022189947,-0.638260439,-0.114785163,-0.099025856,-0.840383951,Subject A,neutral
0.021494507,-0.359680466,-0.094475074,-0.129621267,-0.972148438,Subject A,neutral
0.020795754,-0.106470757,-0.062380284,-0.183768316,-0.825356569,Subject A,neutral
0.020093851,-0.090171722,-0.034206335,-0.21618806,-0.551802862,Subject A,neutral
0.01938896,-0.211414406,-0.027338203,-0.184384993,-0.342509884,Subject A,neutral
0.018681246,-0.264080261,-0.044172788,-0.099162558,-0.215388986,Subject A,neutral
0.017970875,-0.220974514,-0.072530542,-0.022982395,-0.068942499,Subject A,neutral
0.017258014,-0.24377689,-0.09616987,-0.014935242,0.094204978,Subject A,neutral
0.016542829,-0.42724916,-0.105389531,-0.078480793,0.098691665,Subject A,neutral
0.01582549,-0.622692998,-0.10449379,-0.162394367,-0.191793086,Subject A,neutral
0.015106164,-0.593207575,-0.111716453,-0.20903856,-0.644918991,Subject A,neutral
0.014385022,-0.326645966,-0.146077747,-0.199483873,-0.928404991,Subject A,neutral
0.013662235,-0.090183876,-0.206204573,-0.155706019,-0.821645581,Subject A,neutral
0.012937972,-0.106511406,-0.261335192,-0.109262397,-0.415691003,Subject A,neutral
0.012212405,-0.246156469,-0.272289607,-0.0764106,0.002100894,Subject A,neutral
0.011485706,-0.169977587,-0.228281632,-0.060538322,0.217771059,Subject A,neutral
0.010758047,0.225584447,-0.157271484,-0.065348665,0.229280087,Subject A,neutral
0.0100296,0.659050244,-0.093459331,-0.095230567,0.170299592,Subject A,neutral
0.009300536,0.833614316,-0.043023153,-0.144411493,0.16812208,Subject A,neutral
0.008571026,0.810125604,0.007233308,-0.194313327,0.282844653,Subject A,neutral
0.007841244,0.851689925,0.055622092,-0.226632219,0.511611035,Subject A,neutral
0.007111366,0.986494754,0.077856809,-0.237856173,0.780337738,Subject A,neutral
0.006381563,0.955161896,0.056421244,-0.238510269,0.94631638,Subject A,neutral
0.005652001,0.629573416,0.006390477,-0.239064151,0.888935569,Subject A,neutral
0.004922848,0.279232745,-0.034578192,-0.239926482,0.645758188,Subject A,neutral
0.004194283,0.270609645,-0.039179177,-0.235616872,0.425615626,Subject A,neutral
0.003466486,0.59589423,-0.010937001,-0.223115808,0.427092025,Subject A,neutral
0.002739621,0.878000147,0.02576184,-0.200812534,0.642670448,Subject A,neutral
0.002013828,0.854052522,0.051679743,-0.163336917,0.890693536,Subject A,neutral
0.00128925,0.696607698,0.065434666,-0.107501601,1.038200509,Subject A,neutral
0.000566078,0.752000087,0.071841902,-0.046143864,1.116240296,Subject A,neutral
-0.000155466,1.049898064,0.066726999,-0.008162219,1.191295861,Subject A,neutral
-0.000875213,1.237120821,0.043069666,-0.015989378,1.224021998,Subject A,neutral
-0.001593111,1.028400752,0.011076002,-0.060793111,1.147440891,Subject A,neutral
-0.00230912,0.590830694,0.000611468,-0.103833773,1.023005984,Subject A,neutral
-0.003023008,0.363796708,0.035109081,-0.10864845,0.991903448,Subject A,neutral
-0.003734337,0.538904417,0.104969882,-0.074975082,1.070230928,Subject A,neutral
-0.00444283,0.84972197,0.172052892,-0.037712832,1.10810169,Subject A,neutral
-0.005148738,0.920154688,0.200884232,-0.029418615,0.999883791,Subject A,neutral
-0.00585253,0.721862482,0.184773556,-0.047397373,0.848037946,Subject A,neutral
-0.006553919,0.572307122,0.146102525,-0.061329516,0.831378791,Subject A,neutral
-0.007251509,0.692749067,0.116644341,-0.048753476,0.942512905,Subject A,neutral
-0.007944235,0.89855577,0.114555246,-0.016371228,0.955526127,Subject A,neutral
-0.008633362,0.826291041,0.131417013,0.012232098,0.698922141,Subject A,neutral
-0.009321778,0.413861394,0.138315812,0.022776745,0.306724999,Subject A,neutral
-0.010009666,0.008266443,0.110424291,0.020947746,0.108508648,Subject A,neutral
-0.010691684,-0.053717171,0.052065638,0.019978671,0.244917475,Subject A,neutral
-0.011362152,0.14783855,-0.003213214,0.0222499,0.467903135,Subject A,neutral
-0.012025236,0.249359622,-0.022772532,0.016302266,0.406162566,Subject A,neutral
-0.012695315,0.085636645,-0.006670483,-0.006740434,0.001182502,Subject A,neutral
-0.013378655,-0.123343788,0.014234151,-0.035774758,-0.422543355,Subject A,neutral
-0.014053404,-0.106780457,0.0123932,-0.044059054,-0.542046671,Subject A,neutral
-0.014679063,0.075627952,-0.010225714,-0.015402504,-0.399045383,Subject A,neutral
-0.015237444,0.124378228,-0.032598368,0.035393922,-0.315436726,Subject A,neutral
-0.015761236,-0.067231079,-0.043278621,0.073770668,-0.493231064,Subject A,neutral
-0.016310237,-0.238872336,-0.048962665,0.079319818,-0.778690371,Subject A,neutral
-0.016917141,-0.107031022,-0.05624784,0.064992863,-0.846056486,Subject A,neutral
-0.01756377,0.225778841,-0.056445545,0.059783423,-0.579892756,Subject A,neutral
-0.018209641,0.369383626,-0.035213719,0.075994554,-0.224406775,Subject A,neutral
-0.018832923,0.150101674,0.00808533,0.099113724,-0.124960577,Subject A,neutral
-0.019439909,-0.154036704,0.056653142,0.108788822,-0.346234839,Subject A,neutral
-0.020045012,-0.180560763,0.088224445,0.10255456,-0.606545158,Subject A,neutral
-0.020652435,0.032964532,0.086765668,0.094795435,-0.606391464,Subject A,neutral
-0.021256544,0.099385648,0.048719951,0.096051825,-0.360857601,Subject A,neutral
-0.021852046,-0.201814613,-0.013526461,0.099337806,-0.147305625,Subject A,neutral
-0.022439181,-0.624460871,-0.074710394,0.08756489,-0.152991742,Subject A,neutral
-0.023020896,-0.745697214,-0.108786272,0.050564362,-0.26938563,Subject A,neutral
-0.023598522,-0.457015843,-0.101407902,-0.006046616,-0.28361911,Subject A,neutral
-0.024171061,-0.05717808,-0.054487287,-0.063935009,-0.193543361,Subject A,neutral
-0.024737193,0.116481712,0.014999854,-0.100792814,-0.201971104,Subject A,neutral
-0.025296706,0.038227253,0.079324302,-0.100806899,-0.399626857,Subject A,neutral
-0.025850147,-0.066583485,0.11142114,-0.064341203,-0.603661995,Subject A,neutral
-0.026397852,-0.049897929,0.101840982,-0.010514512,-0.588944652,Subject A,neutral
-0.026939631,0.002921063,0.066514353,0.032509683,-0.373065051,Subject A,neutral
-0.027475138,-0.044268585,0.034358571,0.045368089,-0.166982853,Subject A,neutral
-0.028004235,-0.144869792,0.025841419,0.030067406,-0.103071164,Subject A,neutral
-0.028526984,-0.11688478,0.044406067,0.005175296,-0.117025498,Subject A,neutral
-0.029043436,0.098009803,0.085658626,-0.012590991,-0.081897115,Subject A,neutral
-0.029553533,0.330498904,0.147908811,-0.020536133,0.032328699,Subject A,neutral
-0.030057167,0.391906324,0.230044287,-0.023431674,0.162823151,Subject A,neutral
-0.030554265,0.315131507,0.321533482,-0.021325732,0.272380641,Subject A,neutral
-0.031044806,0.291682109,0.398762885,-0.012027952,0.409938869,Subject A,neutral
-0.031528775,0.388230834,0.434157257,-0.004642508,0.623006468,Subject A,neutral
-0.032006139,0.442048924,0.411665396,-0.020424925,0.822719092,Subject A,neutral
-0.032476851,0.293612882,0.336449738,-0.071796354,0.807704996,Subject A,neutral
-0.032940872,0.041393097,0.231419176,-0.141554099,0.491319942,Subject A,neutral
-0.033398177,-0.048559574,0.124530301,-0.190561648,0.070477374,Subject A,neutral
-0.033848746,0.111257245,0.038733698,-0.191069457,-0.13979365,Subject A,neutral
-0.034292555,0.284161449,-0.00878373,-0.150008383,-0.065363273,Subject A,neutral
-0.034729579,0.187102295,-0.006224042,-0.096771782,0.030060003,Subject A,neutral
-0.035159796,-0.145820505,0.042631,-0.053671343,-0.128195399,Subject A,neutral
-0.035583187,-0.393126624,0.105523594,-0.025099316,-0.474926025,Subject A,neutral
-0.035999737,-0.349342486,0.131177769,-0.010307929,-0.68609638,Subject A,neutral
-0.036409428,-0.191053639,0.086531699,-0.013699369,-0.595509464,Subject A,neutral
-0.036812244,-0.259361954,-0.012099393,-0.038222157,-0.413801926,Subject A,neutral
-0.037208171,-0.619239048,-0.109731887,-0.075811551,-0.46556274,Subject A,neutral
-0.037597194,-0.943905262,-0.155989079,-0.110184082,-0.777023886,Subject A,neutral
-0.0379793,-0.891234056,-0.138376463,-0.127400258,-1.041472739,Subject A,neutral
-0.038354476,-0.532936789,-0.081251986,-0.122205264,-1.005629702,Subject A,neutral
-0.038722711,-0.294159679,-0.02284457,-0.098417231,-0.778310274,Subject A,neutral
-0.039083994,-0.444210679,0.007007923,-0.067394481,-0.672103816,Subject A,neutral
-0.039438316,-0.769603351,-0.002077359,-0.043457024,-0.799936847,Subject A,neutral
-0.03978567,-0.858328638,-0.040687359,-0.03497615,-0.948815601,Subject A,neutral
-0.04012605,-0.626394096,-0.084854564,-0.038403651,-0.871760677,Subject A,neutral
-0.040459449,-0.394185964,-0.102333729,-0.042895998,-0.607431692,Subject A,neutral
-0.040785863,-0.43347577,-0.062546337,-0.04049636,-0.42654116,Subject A,neutral
-0.041105288,-0.607763121,0.044780886,-0.030394238,-0.484859232,Subject A,neutral
-0.041417721,-0.571277255,0.191367549,-0.016436735,-0.623041447,Subject A,neutral
-0.041723156,-0.237405551,0.315943206,-0.006447678,-0.562068537,Subject A,neutral
-0.042021593,0.101286901,0.362544727,-0.012965611,-0.245543829,Subject A,neutral
-0.042313027,0.13575072,0.322781099,-0.04471497,0.090915306,Subject A,neutral
-0.042597455,-0.097911085,0.239327638,-0.09131501,0.178639344,Subject A,neutral
-0.042874875,-0.303026334,0.16527391,-0.123919625,-0.031233311,Subject A,neutral
-0.043145285,-0.305389855,0.121769261,-0.121734997,-0.376125285,Subject A,neutral
-0.04340868,-0.230416274,0.093956062,-0.096252575,-0.659887642,Subject A,neutral
-0.043665059,-0.273240474,0.058755474,-0.079169713,-0.781424188,Subject A,neutral
-0.043914416,-0.395013002,0.009554516,-0.085029594,-0.742505284,Subject A,neutral
-0.044156747,-0.365731962,-0.041727879,-0.095464737,-0.601641098,Subject A,neutral
-0.044392049,-0.1102683,-0.078837354,-0.084843246,-0.440582833,Subject A,neutral
-0.044620315,0.116896251,-0.097281998,-0.052361098,-0.344800888,Subject A,neutral
-0.044841541,0.017525787,-0.110153087,-0.01889459,-0.358279929,Subject A,neutral
-0.045055721,-0.336378126,-0.136132359,0.002909662,-0.41818681,Subject A,neutral
-0.045262852,-0.529680224,-0.176401962,0.020419258,-0.36814038,Subject A,neutral
-0.045462928,-0.299050893,-0.204491429,0.039276262,-0.110583472,Subject A,neutral
-0.045655946,0.11931807,-0.188038188,0.045074627,0.242258553,Subject A,neutral
-0.045841902,0.253828247,-0.126372763,0.020398016,0.431378242,Subject A,neutral
-0.046020792,-0.038309245,-0.058947415,-0.02715944,0.303381095,Subject A,neutral
-0.04619261,-0.399085832,-0.024803181,-0.069213214,-0.025375039,Subject A,neutral
-0.046357354,-0.391674304,-0.018485127,-0.087638593,-0.285812108,Subject A,neutral
