timestamps,TP9,AF7,AF8,TP10,Subject,Emotion
0.009533492,0.121374256,-0.143445267,-0.004545489,-0.266279484,Subject A,neutral
0.00972479,-0.21341344,-0.085155633,-0.03447452,-0.179223432,Subject A,neutral
0.009916143,-0.441639135,-0.041242618,-0.044296493,-0.03735296,Subject A,neutral
0.010107532,-0.305998311,-0.031659104,-0.030012682,0.111950853,Subject A,neutral
0.010298936,0.023649066,-0.014106159,-0.042880434,0.185192383,Subject A,neutral
0.010490335,0.128530611,0.062663431,-0.12576549,0.122251779,Subject A,neutral
0.010681708,-0.162186257,0.18544669,-0.24455926,-0.038133288,Subject A,neutral
0.010873033,-0.570432595,0.275481025,-0.309032583,-0.158765629,Subject A,neutral
0.011064289,-0.707640132,0.27275265,-0.26934453,-0.115966573,Subject A,neutral
0.011255453,-0.518694425,0.215031372,-0.176047583,0.063759104,Subject A,neutral
0.011446499,-0.291127339,0.211316361,-0.128614679,0.193325393,Subject A,neutral
0.011637405,-0.261757333,0.323097161,-0.167647618,0.094777647,Subject A,neutral
0.011828145,-0.343193807,0.486240988,-0.233439284,-0.201902879,Subject A,neutral
0.012018694,-0.298041593,0.573693821,-0.238366267,-0.464033355,Subject A,neutral
0.012209028,-0.099356801,0.531818617,-0.169520916,-0.497896481,Subject A,neutral
0.012399118,0.010801497,0.430046021,-0.102980262,-0.361956176,Subject A,neutral
0.012588939,-0.156407944,0.370692605,-0.114779385,-0.279949595,Subject A,neutral
0.012778464,-0.465905643,0.374840006,-0.19526434,-0.343268098,Subject A,neutral
0.012967664,-0.611843261,0.377684393,-0.266181492,-0.387442614,Subject A,neutral
0.01315651,-0.498869104,0.32420682,-0.272706024,-0.227855588,Subject A,neutral
0.013344973,-0.338907322,0.239073916,-0.235473912,0.047241545,Subject A,neutral
0.013533024,-0.333641185,0.189491376,-0.206966005,0.145200268,Subject A,neutral
0.01372063,-0.382447118,0.198204079,-0.199351446,-0.051364298,Subject A,neutral
0.013907761,-0.22277389,0.220219255,-0.179060094,-0.294026966,Subject A,neutral
0.014094381,0.184195863,0.206702258,-0.127828326,-0.252902016,Subject A,neutral
0.014280457,0.548434173,0.166064881,-0.080202047,0.070618775,Subject A,neutral
0.014465953,0.577411412,0.14205948,-0.081475286,0.341335421,Subject A,neutral
0.014650833,0.31341144,0.142478722,-0.12185909,0.304589315,Subject A,neutral
0.014835061,0.059174994,0.118288427,-0.140164415,0.078656114,Subject A,neutral
0.015018595,0.013298192,0.026477201,-0.098442679,-0.037458182,Subject A,neutral
0.015201397,0.085775375,-0.102546148,-0.031128181,0.045893601,Subject A,neutral
0.015383425,0.087215544,-0.183549486,-0.00332496,0.146180263,Subject A,neutral
0.015564636,-0.004916803,-0.1649105,-0.031298525,0.120614316,Subject A,neutral
0.015744986,-0.061228427,-0.083229319,-0.065709177,0.08524727,Subject A,neutral
0.015924429,-0.043565471,-0.021703918,-0.056311553,0.226563975,Subject A,neutral
0.016102916,-0.10182237,-0.022161436,-0.014503756,0.476118649,Subject A,neutral
0.016280399,-0.357158509,-0.047856341,0.005239669,0.521944687,Subject A,neutral
0.016456827,-0.67245894,-0.032234145,-0.019945443,0.182044663,Subject A,neutral
0.016632146,-0.773809426,0.043214446,-0.048880078,-0.329100082,Subject A,neutral
0.016806303,-0.603603715,0.124084976,-0.03120635,-0.598037465,Subject A,neutral
0.01697924,-0.419486538,0.134578211,0.021458837,-0.456737595,Subject A,neutral
0.017150899,-0.466171924,0.052217674,0.044282925,-0.150419897,Subject A,neutral
0.017321222,-0.644493675,-0.067263682,-0.000255238,-0.041142674,Subject A,neutral
0.017490148,-0.638829507,-0.137184566,-0.07361244,-0.209375759,Subject A,neutral
0.017657615,-0.353187605,-0.112654614,-0.105388714,-0.413795869,Subject A,neutral
0.017823561,-0.074267452,-0.021237987,-0.071288544,-0.420618367,Subject A,neutral
0.017987923,-0.124991942,0.071136336,-0.009016777,-0.278162347,Subject A,neutral
0.018150638,-0.442544365,0.119555458,0.036250443,-0.213400055,Subject A,neutral
0.018311643,-0.626671666,0.128839469,0.05836405,-0.31663963,Subject A,neutral
0.018470872,-0.411701132,0.134289457,0.074214119,-0.431845362,Subject A,neutral
0.01862826,0.018424584,0.162762133,0.081054945,-0.377150198,Subject A,neutral
0.018783739,0.256158885,0.210729349,0.054837782,-0.184118885,Subject A,neutral
0.018937244,0.15289892,0.252177962,-0.006662933,-0.038744742,Subject A,neutral
0.019088708,-0.031453365,0.263816857,-0.06051042,-0.021219337,Subject A,neutral
0.019238061,0.02174177,0.24447016,-0.057049979,-0.006636583,Subject A,neutral
0.019385236,0.290592502,0.212891972,0.002931072,0.146330257,Subject A,neutral
0.019530162,0.462335228,0.189837471,0.066205671,0.388608454,Subject A,neutral
0.019672771,0.356311391,0.185307448,0.08525995,0.537056804,Subject A,neutral
0.019812993,0.16664805,0.201211514,0.065091491,0.505115528,Subject A,neutral
0.01995076,0.201912382,0.238369647,0.044973494,0.393749916,Subject A,neutral
0.020086001,0.463456394,0.295086524,0.045351667,0.344016585,Subject A,neutral
0.020218646,0.636790471,0.361686802,0.048255345,0.375863966,Subject A,neutral
0.020348625,0.523411206,0.422683966,0.029721054,0.416216108,Subject A,neutral
0.020475869,0.321574658,0.465491839,-0.004350805,0.431429282,Subject A,neutral
0.020600305,0.347501172,0.484944177,-0.02711527,0.462898074,Subject A,neutral
0.020721863,0.566710248,0.481537936,-0.029770438,0.538474199,Subject A,neutral
0.020840472,0.601390016,0.459599339,-0.035262379,0.599927829,Subject A,neutral
0.020956059,0.248480024,0.425079162,-0.067944582,0.548922926,Subject A,neutral
0.021068553,-0.175174278,0.37922686,-0.122564541,0.367757212,Subject A,neutral
0.021177884,-0.165709332,0.315387549,-0.175023219,0.174321812,Subject A,neutral
0.021283979,0.330136785,0.230321537,-0.21606748,0.118967897,Subject A,neutral
0.021386771,0.793150046,0.143694285,-0.256966719,0.213738589,Subject A,neutral
0.021486191,0.737016038,0.100523516,-0.298213022,0.301094898,Subject A,neutral
0.021582174,0.309732767,0.140635328,-0.307831401,0.226260581,Subject A,neutral
0.021674656,0.113219227,0.255612885,-0.247953933,0.018034342,Subject A,neutral
0.021763571,0.44309795,0.379099176,-0.125635027,-0.146451297,Subject A,neutral
0.021848857,0.908164052,0.431881763,-0.005625632,-0.151985348,Subject A,neutral
0.021930453,0.913009479,0.385639406,0.040153907,-0.066920967,Subject A,neutral
0.022008297,0.389651008,0.285313298,-0.001803447,-0.032533658,Subject A,neutral
0.02208233,-0.130762271,0.21054984,-0.077297232,-0.080219606,Subject A,neutral
0.022152496,-0.161329609,0.212766801,-0.122314907,-0.111995008,Subject A,neutral
0.022218737,0.200768511,0.27887892,-0.123103257,-0.042757595,Subject A,neutral
0.022281,0.4688913,0.346302352,-0.113576102,0.098130714,Subject A,neutral
0.022339231,0.387989736,0.355417501,-0.120787181,0.219008655,Subject A,neutral
0.022393376,0.189439609,0.29626819,-0.128320816,0.273171434,Subject A,neutral
0.022443383,0.209325049,0.209429244,-0.101866628,0.274933368,Subject A,neutral
0.022489203,0.413493437,0.143750347,-0.042863067,0.223710675,Subject A,neutral
0.022530785,0.454286851,0.114660819,0.002137072,0.072915649,Subject A,neutral
0.02256808,0.165103955,0.100232023,-0.004860318,-0.173650412,Subject A,neutral
0.022601039,-0.181045909,0.070965565,-0.043530675,-0.362117526,Subject A,neutral
0.022629613,-0.209709446,0.020231903,-0.058924386,-0.288652712,Subject A,neutral
0.022653755,0.061502803,-0.033072601,-0.032217452,0.041837664,Subject A,neutral
0.022673419,0.241826831,-0.070062725,-0.005374085,0.332855563,Subject A,neutral
0.02268856,0.088064836,-0.097073768,-0.026419595,0.284656605,Subject A,neutral
0.022699132,-0.172225363,-0.139446934,-0.087576652,-0.049827683,Subject A,neutral
0.022705093,-0.157441927,-0.206874474,-0.13490536,-0.312896145,Subject A,neutral
0.022706398,0.144933911,-0.270926086,-0.132429569,-0.269647541,Subject A,neutral
0.022703007,0.361660081,-0.287132405,-0.097885676,-0.068802745,Subject A,neutral
0.022694876,0.230909246,-0.240984675,-0.071016782,-0.002225629,Subject A,neutral
0.022681963,-0.069108386,-0.164247702,-0.062712969,-0.109180897,Subject A,neutral
0.022664227,-0.180338488,-0.102605815,-0.051641711,-0.162245583,Subject A,neutral
0.022641626,-0.037190687,-0.074043803,-0.026555925,-0.017607613,Subject A,neutral
0.022614122,0.073553671,-0.061538143,-0.009768018,0.180073086,Subject A,neutral
0.022581674,-0.080996151,-0.037053616,-0.024755993,0.208092005,Subject A,neutral
0.022544243,-0.357473336,0.013410382,-0.053692121,0.077347311,Subject A,neutral
0.02250179,-0.419727064,0.079964021,-0.052855439,0.015848255,Subject A,neutral
0.022454279,-0.178529976,0.13458916,-0.014877282,0.156351619,Subject A,neutral
0.022401673,0.09871348,0.150662721,0.008035281,0.35025063,Subject A,neutral
0.022343938,0.148453889,0.124800996,-0.037026507,0.352658525,Subject A,neutral
0.022281042,0.044170927,0.078518409,-0.131570752,0.1364159,Subject A,neutral
0.022212951,0.046576928,0.034802702,-0.195826797,-0.071069018,Subject A,neutral
0.022139636,0.190520932,-0.001454946,-0.174572655,-0.071896307,Subject A,neutral
0.022061066,0.202341177,-0.033011532,-0.095169228,0.065445361,Subject A,neutral
0.021977213,-0.115407901,-0.048405744,-0.030288922,0.113247005,Subject A,neutral
0.021888048,-0.5531683,-0.028197464,-0.016884897,-0.014004638,Subject A,neutral
0.021793545,-0.689082765,0.021331152,-0.029864624,-0.152186567,Subject A,neutral
0.021693677,-0.391921338,0.052699143,-0.031507719,-0.105565484,Subject A,neutral
0.021588422,-0.004071036,0.009376291,-0.024327074,0.090697409,Subject A,neutral
0.021477755,0.03627169,-0.120894504,-0.040918904,0.201904309,Subject A,neutral
0.021361651,-0.311814975,-0.283182327,-0.090359509,0.086791703,Subject A,neutral
0.021240089,-0.673371727,-0.387543943,-0.135040219,-0.122004028,Subject A,neutral
0.021113047,-0.727811967,-0.375629313,-0.130568685,-0.188037961,Subject A,neutral
0.020980506,-0.578281184,-0.270053139,-0.079103683,-0.071062937,Subject A,neutral
0.020842448,-0.560075808,-0.159100884,-0.028337341,0.03506937,Subject A,neutral
0.020698857,-0.758911269,-0.12105857,-0.018187047,-0.035082411,Subject A,neutral
0.020549717,-0.894488919,-0.156912501,-0.042658056,-0.207829841,Subject A,neutral
0.020395015,-0.727787961,-0.201139314,-0.069055204,-0.272816659,Subject A,neutral
0.020234743,-0.430252275,-0.199217474,-0.080115995,-0.15187578,Subject A,neutral
0.020068893,-0.396363045,-0.165344432,-0.082603041,-0.000455293,Subject A,neutral
0.01989746,-0.734413452,-0.156991237,-0.080236768,-0.023928921,Subject A,neutral
0.019720444,-1.111370956,-0.200286522,-0.057539865,-0.224357984,Subject A,neutral
0.019537846,-1.164936506,-0.256107851,-0.001224083,-0.382732883,Subject A,neutral
0.01934967,-0.947488724,-0.26444453,0.070215536,-0.317929656,Subject A,neutral
0.019155926,-0.82011993,-0.210258008,0.11492825,-0.116975018,Subject A,neutral
0.018956623,-0.939807828,-0.134248969,0.112805666,-0.036807156,Subject A,neutral
0.018751777,-1.037326868,-0.08433566,0.091462212,-0.181080694,Subject A,neutral
0.018541402,-0.810923474,-0.070645318,0.093953028,-0.354047407,Subject A,neutral
0.01832552,-0.408961892,-0.070056022,0.12598103,-0.283940717,Subject A,neutral
0.018104151,-0.300605716,-0.0613161,0.15241894,0.046317748,Subject A,neutral
0.017877319,-0.654771817,-0.044871698,0.147383777,0.352889506,Subject A,neutral
0.017645049,-1.076109979,-0.034364174,0.128889507,0.344988937,Subject A,neutral
0.017407368,-1.112280601,-0.043114886,0.132838036,0.024819062,Subject A,neutral
0.017164305,-0.87580228,-0.082434149,0.164290804,-0.342403289,Subject A,neutral
0.016915891,-0.912309722,-0.161148813,0.189478653,-0.543663201,Subject A,neutral
0.016662159,-1.454943864,-0.274285067,0.17440813,-0.642914918,Subject A,neutral
0.016403141,-2.069975909,-0.393133577,0.119929144,-0.85274155,Subject A,neutral
0.016138871,-2.199246339,-0.47671612,0.055399587,-1.230351972,Subject A,neutral
0.015869384,-1.894280182,-0.500312307,0.006439788,-1.593941707,Subject A,neutral
0.015594721,-1.769732435,-0.473405553,-0.022732002,-1.759041351,Subject A,neutral
0.015314924,-2.234556579,-0.427958449,-0.03872534,-1.7732768,Subject A,neutral
0.015030034,-2.984018237,-0.388527858,-0.042750498,-1.839474281,Subject A,neutral
0.014740086,-3.365628026,-0.355154409,-0.031456638,-2.030462938,Subject A,neutral
0.014445124,-3.127926665,-0.315616889,-0.010107816,-2.173434713,Subject A,neutral
0.014145203,-2.646076401,-0.268614623,0.002849219,-2.075160254,Subject A,neutral
0.013840381,-2.425809086,-0.22710029,-0.009571504,-1.817303875,Subject A,neutral
0.013530707,-2.551853466,-0.200675709,-0.04159333,-1.720516598,Subject A,neutral
0.013216208,-2.720322789,-0.186147623,-0.063022834,-1.970204477,Subject A,neutral
0.012896918,-2.712082668,-0.179863507,-0.048282253,-2.359162603,Subject A,neutral
0.012572922,-2.654713276,-0.18803025,-0.008817614,-2.500895163,Subject A,neutral
0.01224434,-2.771213007,-0.212763904,0.013896125,-2.270640327,Subject A,neutral
0.011911243,-3.006797222,-0.233311845,-0.004342937,-1.924079902,Subject A,neutral
0.011573591,-3.063552886,-0.217853031,-0.038130899,-1.766529384,Subject A,neutral
0.011231332,-2.802887512,-0.159601092,-0.040245987,-1.820869834,Subject A,neutral
0.010884614,-2.460676149,-0.089392742,0.001361992,-1.882724651,Subject A,neutral
0.010533792,-2.355028306,-0.041288318,0.050125265,-1.80098326,Subject A,neutral
0.010179065,-2.45144287,-0.010869766,0.067362244,-1.590172784,Subject A,neutral
0.009820106,-2.367140017,0.039106566,0.054632143,-1.314699039,Subject A,neutral
0.009456378,-1.843144046,0.129158675,0.037249474,-1.000298397,Subject A,neutral
0.0090881,-1.106144518,0.229629982,0.020212027,-0.690157379,Subject A,neutral
0.008716603,-0.659400728,0.284241897,-0.015420822,-0.482834271,Subject A,neutral
0.008342895,-0.731952129,0.262413656,-0.072539464,-0.42975292,Subject A,neutral
0.007965654,-1.029657495,0.1815714,-0.118772859,-0.433166559,Subject A,neutral
0.007581943,-1.077103458,0.08289658,-0.121880003,-0.33111542,Subject A,neutral
0.00719153,-0.747262663,-0.000852062,-0.09196395,-0.096853617,Subject A,neutral
0.006799718,-0.365540108,-0.049581532,-0.070501606,0.10615849,Subject A,neutral
0.006412146,-0.285336992,-0.045734802,-0.079282493,0.108734607,Subject A,neutral
0.006024619,-0.456017539,0.016124994,-0.096216896,-0.050446676,Subject A,neutral
0.005622727,-0.50539053,0.105184861,-0.087956421,-0.145749421,Subject A,neutral
0.005200182,-0.226496255,0.158779005,-0.055140042,-0.014570684,Subject A,neutral
0.004778815,0.152367448,0.131341046,-0.032035385,0.248189673,Subject A,neutral
0.004399108,0.266125095,0.042014637,-0.042632658,0.39419255,Subject A,neutral
0.004079237,0.087667514,-0.036918279,-0.070633282,0.31794106,Subject A,neutral
0.003786505,-0.04970798,-0.046612989,-0.081879128,0.180651992,Subject A,neutral
0.003461107,0.10466813,0.00449067,-0.069638903,0.192343282,Subject A,neutral
0.003070347,0.418528539,0.053929974,-0.061869566,0.333138621,Subject A,neutral
0.002632403,0.597287083,0.04717808,-0.076898523,0.395152165,Subject A,neutral
0.002187761,0.581369959,-0.014659955,-0.085072753,0.292966991,Subject A,neutral
0.001758256,0.574005614,-0.080569788,-0.036262729,0.203920288,Subject A,neutral
0.001337602,0.698937976,-0.097710431,0.069626781,0.325040322,Subject A,neutral
0.000911396,0.796608285,-0.060014398,0.160305188,0.579208899,Subject A,neutral
0.000475447,0.662476379,-0.013393361,0.161037615,0.693142373,Subject A,neutral
3.54e-05,0.40100306,-0.00551363,0.082970659,0.557705092,Subject A,neutral
-0.000403433,0.367786125,-0.026015575,0.019327033,0.379569497,Subject A,neutral
-0.000841274,0.715860979,-0.007962961,0.044165187,0.409430914,Subject A,neutral
-0.001281051,1.148892059,0.098283471,0.130698765,0.607620415,Subject A,neutral
-0.00172407,1.263648367,0.257426683,0.187348909,0.690685462,Subject A,neutral
-0.002169308,1.064911814,0.371632432,0.165768172,0.489092293,Subject A,neutral
-0.002615416,0.960367941,0.376115888,0.107843968,0.149062722,Subject A,neutral
-0.003062152,1.218013315,0.300699321,0.081946209,-0.05271137,Subject A,neutral
-0.003510033,1.592093801,0.22610212,0.100107357,-0.014105941,Subject A,neutral
-0.003959363,1.615488554,0.191055095,0.119928794,0.127805768,Subject A,neutral
-0.004409915,1.190310387,0.166208004,0.113910425,0.183786889,Subject A,neutral
-0.004861306,0.717533579,0.12011468,0.106668298,0.093766746,Subject A,neutral
-0.005313358,0.60066317,0.079542747,0.136203259,-0.067279033,Subject A,neutral
-0.005766085,0.766759507,0.100010805,0.197540442,-0.207277363,Subject A,neutral
-0.006219492,0.810928419,0.190257554,0.243006535,-0.310232471,Subject A,neutral
-0.006673468,0.545345887,0.293235731,0.237363918,-0.40990076,Subject A,neutral
-0.007127849,0.225859724,0.343024301,0.199142189,-0.487475067,Subject A,neutral
-0.007582502,0.191033968,0.321559721,0.178044127,-0.442584877,Subject A,neutral
-0.008037346,0.423738522,0.2552201,0.196086943,-0.208741797,Subject A,neutral
-0.0084923,0.603778896,0.173848762,0.224319349,0.122097138,Subject A,neutral
-0.008947261,0.538265212,0.089106924,0.222416685,0.349075829,Subject A,neutral
-0.009402111,0.380212821,0.008881987,0.188628969,0.358121885,Subject A,neutral
-0.009856732,0.376567874,-0.045133586,0.156337293,0.239383258,Subject A,neutral
-0.010311018,0.524293861,-0.048596293,0.147100459,0.185203263,Subject A,neutral
-0.010764865,0.602504442,-0.002550904,0.147221699,0.288061628,Subject A,neutral
-0.01121816,0.511281694,0.06038432,0.137097305,0.471739501,Subject A,neutral
-0.01167079,0.425399053,0.10363777,0.126773354,0.616507139,Subject A,neutral
-0.012122636,0.536094948,0.116314989,0.144523263,0.700954549,Subject A,neutral
-0.012573587,0.753894002,0.112208935,0.193491137,0.783585502,Subject A,neutral
-0.013023528,0.82913514,0.104923811,0.238278524,0.875554496,Subject A,neutral
-0.013472344,0.737955975,0.090277611,0.244971117,0.901780613,Subject A,neutral
-0.013919919,0.745770752,0.051902959,0.224416432,0.817437672,Subject A,neutral
-0.014366135,1.007304003,-0.020244229,0.218410582,0.716729515,Subject A,neutral
-0.014810875,1.280151007,-0.116115724,0.241671138,0.755287024,Subject A,neutral
-0.015254019,1.208402705,-0.205704025,0.255790257,0.947899384,Subject A,neutral
-0.015695447,0.803659008,-0.254009921,0.215360807,1.099316427,Subject A,neutral
-0.016135037,0.448575787,-0.244700656,0.131166348,0.997939087,Subject A,neutral
-0.016572667,0.425828715,-0.194291485,0.066708466,0.663292153,Subject A,neutral
-0.017008212,0.621979763,-0.138409666,0.067263864,0.328438369,Subject A,neutral
-0.017441549,0.755351834,-0.102327339,0.110519482,0.17067078,Subject A,neutral
-0.017872553,0.743752842,-0.093365784,0.141930868,0.151445468,Subject A,neutral
-0.018301095,0.724939349,-0.120343171,0.145247145,0.157160385,Subject A,neutral
-0.018727049,0.793113603,-0.195385865,0.153005437,0.186383702,Subject A,neutral
-0.019150284,0.851857015,-0.297863299,0.188851492,0.300526879,Subject A,neutral
-0.019570674,0.743608882,-0.355322623,0.22847884,0.458787449,Subject A,neutral
-0.019988089,0.467262137,-0.296512179,0.233427747,0.534833887,Subject A,neutral
-0.0204024,0.238147764,-0.134725349,0.205811616,0.512692172,Subject A,neutral
-0.020813476,0.305381188,0.019822058,0.18667583,0.560111173,Subject A,neutral
-0.021221188,0.670559954,0.048637512,0.202470946,0.818620361,Subject A,neutral
-0.021625404,1.01942932,-0.071219546,0.231960478,1.154825731,Subject A,neutral
-0.022025993,1.030975846,-0.251086145,0.234640227,1.240339824,Subject A,neutral
-0.022422823,0.769032243,-0.371029488,0.20264952,0.934906096,Subject A,neutral
-0.022815759,0.64777856,-0.374686025,0.171738319,0.501854138,Subject A,neutral
-0.023204669,0.924220919,-0.298554021,0.178781975,0.331523615,Subject A,neutral
-0.023589417,1.32319233,-0.225126452,0.217170254,0.481345745,Subject A,neutral
-0.02396987,1.3348309,-0.209916485,0.243090648,0.619521729,Subject A,neutral
-0.024345891,0.878533759,-0.243089119,0.225850121,0.454391398,Subject A,neutral
-0.024717345,0.463883096,-0.271722778,0.183681429,0.096472659,Subject A,neutral
-0.025084099,0.562602068,-0.25572496,0.162853488,-0.105197735,Subject A,neutral
-0.025446019,0.978062559,-0.200882639,0.184788042,-0.02070772,Subject A,neutral
-0.025802973,1.076494956,-0.139153559,0.224162215,0.099800008,Subject A,neutral
-0.02615483,0.613930042,-0.087429889,0.242379376,-0.0555679,Subject A,neutral
-0.026501459,0.077413495,-0.040172053,0.232170032,-0.476198081,Subject A,neutral
-0.026842734,0.100443622,-0.001530677,0.217081782,-0.832856262,Subject A,neutral
-0.027178526,0.720869975,-0.001613784,0.210074178,-0.832511249,Subject A,neutral
