timestamps,TP9,AF7,AF8,TP10,Subject,Emotion
0.032064334,0.466288318,0.162776172,0.055253019,0.358934454,Subject A,neutral
0.032018657,0.192193514,0.253475829,0.02139312,0.299164243,Subject A,neutral
0.031971998,0.130512074,0.321063402,0.019238971,0.325894223,Subject A,neutral
0.0319214,0.256282623,0.321528101,0.04103173,0.437764138,Subject A,neutral
0.031865523,0.265428072,0.260729387,0.040939539,0.45149988,Subject A,neutral
0.031805358,0.038700232,0.184764913,-0.002555203,0.246858589,Subject A,neutral
0.031742222,-0.174680631,0.135111032,-0.053842128,-0.040840869,Subject A,neutral
0.031676322,-0.079614351,0.117141496,-0.061951995,-0.154515966,Subject A,neutral
0.031607105,0.289118219,0.113243243,-0.022600272,-0.008266493,Subject A,neutral
0.031534237,0.618923794,0.115528485,0.020367123,0.23145342,Subject A,neutral
0.031457904,0.691281839,0.129995191,0.0328502,0.362544881,Subject A,neutral
0.031378456,0.58627804,0.150160274,0.029107699,0.374529727,Subject A,neutral
0.03129603,0.510196129,0.147545398,0.043352991,0.412921703,Subject A,neutral
0.03121057,0.520448335,0.101924232,0.077743956,0.554584522,Subject A,neutral
0.031122028,0.489644352,0.031638915,0.096851914,0.691215175,Subject A,neutral
0.031030471,0.309899724,-0.021437038,0.072539476,0.659752598,Subject A,neutral
0.030936015,0.061552105,-0.037743617,0.019151697,0.444799843,Subject A,neutral
0.030838743,-0.059853508,-0.040746527,-0.023478158,0.200105322,Subject A,neutral
0.030738688,0.026579378,-0.067690215,-0.03427892,0.07405933,Subject A,neutral
0.030635876,0.182819276,-0.125884426,-0.026698149,0.066679244,Subject A,neutral
0.030530355,0.225741413,-0.183779637,-0.020556315,0.084431338,Subject A,neutral
0.030422189,0.173587119,-0.203214862,-0.013171456,0.087982167,Subject A,neutral
0.030311435,0.21900264,-0.177743793,0.008336351,0.119841992,Subject A,neutral
0.030198137,0.425999228,-0.142335941,0.033790082,0.192938363,Subject A,neutral
0.030082337,0.56719124,-0.145997945,0.030628131,0.228409467,Subject A,neutral
0.029964076,0.382470878,-0.206331393,-0.014271933,0.153634105,Subject A,neutral
0.029843402,-0.046225459,-0.284899588,-0.067821239,0.028216532,Subject A,neutral
0.029720361,-0.332478973,-0.314551768,-0.080876855,0.008262308,Subject A,neutral
0.029594996,-0.242535989,-0.261798037,-0.042660938,0.17015595,Subject A,neutral
0.029467347,0.009304263,-0.162659176,0.006785232,0.405208837,Subject A,neutral
0.029337456,0.030041157,-0.091302335,0.022014647,0.517556736,Subject A,neutral
0.029205363,-0.257961687,-0.093207019,0.002497833,0.420750064,Subject A,neutral
0.029071106,-0.541113668,-0.152308019,-0.010092751,0.217342163,Subject A,neutral
0.028934726,-0.540642065,-0.219025799,0.016482236,0.069948309,Subject A,neutral
0.028796256,-0.361445802,-0.259187932,0.066095194,0.004652649,Subject A,neutral
0.028655733,-0.310217854,-0.272586098,0.095626568,-0.107892129,Subject A,neutral
0.028513191,-0.453174519,-0.27557374,0.09073351,-0.338037993,Subject A,neutral
0.028368663,-0.525896143,-0.278700727,0.08484222,-0.517603704,Subject A,neutral
0.028222181,-0.322420818,-0.281355312,0.115463493,-0.381084226,Subject A,neutral
0.028073777,-0.030983896,-0.2800724,0.17337361,0.095575883,Subject A,neutral
0.027923479,-0.035247444,-0.278510073,0.20965464,0.593183912,Subject A,neutral
0.027771316,-0.414648048,-0.289146504,0.190678495,0.751992188,Subject A,neutral
0.02761732,-0.80384299,-0.320818713,0.132340051,0.528815671,Subject A,neutral
0.027461519,-0.815034552,-0.360774524,0.075500789,0.194920525,Subject A,neutral
0.027303942,-0.48921897,-0.374296163,0.038951806,0.017457169,Subject A,neutral
0.02714462,-0.211720603,-0.331176983,0.009057384,0.021145788,Subject A,neutral
0.026983583,-0.226297218,-0.23544934,-0.027275217,0.063631212,Subject A,neutral
0.026820864,-0.374865236,-0.126898752,-0.056790905,0.0562334,Subject A,neutral
0.026656495,-0.362849092,-0.05158991,-0.058984017,0.037218645,Subject A,neutral
0.02649051,-0.167505068,-0.027140797,-0.042534186,0.05801745,Subject A,neutral
0.026322939,-0.048150795,-0.029916037,-0.043769317,0.095703833,Subject A,neutral
0.026153816,-0.162001312,-0.015167313,-0.083071927,0.122318823,Subject A,neutral
0.02598317,-0.318285906,0.040772307,-0.135726864,0.194893341,Subject A,neutral
0.025811034,-0.21993078,0.110942077,-0.158347715,0.388955442,Subject A,neutral
0.025637437,0.119697192,0.136714861,-0.140064671,0.645611091,Subject A,neutral
0.025462408,0.352219029,0.086073999,-0.114607529,0.762047193,Subject A,neutral
0.025285976,0.218009028,-0.008708407,-0.117959176,0.582745012,Subject A,neutral
0.025108167,-0.12599971,-0.077367406,-0.144248393,0.182466075,Subject A,neutral
0.024929009,-0.303277118,-0.072369665,-0.15406748,-0.174100499,Subject A,neutral
0.024748529,-0.185872329,-0.000635197,-0.123010011,-0.262071968,Subject A,neutral
0.024566751,-0.025250457,0.093333859,-0.069409031,-0.079930153,Subject A,neutral
0.024383701,-0.07847334,0.161622199,-0.03016561,0.188684912,Subject A,neutral
0.024199406,-0.233914331,0.176415778,-0.019669728,0.371912012,Subject A,neutral
0.024013891,-0.151456652,0.141198506,-0.02356131,0.445342379,Subject A,neutral
0.023827183,0.255927407,0.089263553,-0.029655041,0.474504146,Subject A,neutral
0.023639307,0.643854311,0.061737405,-0.049466502,0.464694992,Subject A,neutral
0.023450292,0.617781695,0.074098996,-0.09792382,0.329029365,Subject A,neutral
0.023260164,0.200891147,0.101788048,-0.157848315,0.030634464,Subject A,neutral
0.023068951,-0.193663775,0.103844147,-0.182531395,-0.290002579,Subject A,neutral
0.022876681,-0.241343222,0.065774682,-0.144085718,-0.405670055,Subject A,neutral
0.022683382,-0.046786537,0.019943807,-0.07108653,-0.245089123,Subject A,neutral
0.022489083,0.042857811,0.018289825,-0.023013235,0.000214834,Subject A,neutral
0.02229381,-0.113758605,0.07704357,-0.026101091,0.063895292,Subject A,neutral
0.022097593,-0.300991042,0.147544407,-0.049233266,-0.103616166,Subject A,neutral
0.021900456,-0.251395547,0.151072422,-0.051457815,-0.283942732,Subject A,neutral
0.021702428,0.002001647,0.052569419,-0.038670634,-0.265450156,Subject A,neutral
0.021503534,0.170629605,-0.099511031,-0.052898831,-0.126142391,Subject A,neutral
0.021303801,0.079222115,-0.212365463,-0.108494364,-0.155776255,Subject A,neutral
0.021103254,-0.121051092,-0.230594472,-0.163224906,-0.477744378,Subject A,neutral
0.020901916,-0.163507339,-0.178819469,-0.165598988,-0.838381794,Subject A,neutral
0.02069981,-0.018028244,-0.126878178,-0.11607994,-0.858209254,Subject A,neutral
0.020496956,0.081742754,-0.119673045,-0.061450236,-0.464195405,Subject A,neutral
0.020293371,-0.02758751,-0.141769735,-0.031733567,0.013654467,Subject A,neutral
0.020089073,-0.19911621,-0.14308023,-0.004586201,0.188847474,Subject A,neutral
0.019884076,-0.173139398,-0.092322597,0.055785044,-0.00108989,Subject A,neutral
0.019678393,0.043777192,-0.005063817,0.137407655,-0.282201355,Subject A,neutral
0.019472037,0.154332831,0.076524879,0.180878381,-0.349101335,Subject A,neutral
0.019265018,-0.028611332,0.124987881,0.146606265,-0.12704913,Subject A,neutral
0.019057345,-0.294616078,0.143727137,0.06479355,0.230981218,Subject A,neutral
0.018849027,-0.289277707,0.147286641,0.002609482,0.518386355,Subject A,neutral
0.018640072,0.000773865,0.140570396,-0.010095551,0.612886252,Subject A,neutral
0.018430487,0.197263274,0.124421374,-0.002566647,0.494070852,Subject A,neutral
0.018220275,0.015433235,0.108505874,-0.011359125,0.203059461,Subject A,neutral
0.018009439,-0.352964212,0.10205585,-0.03010673,-0.170799911,Subject A,neutral
0.017797982,-0.476957257,0.09696398,-0.025920716,-0.481756337,Subject A,neutral
0.017585905,-0.230769969,0.080530231,0.006280548,-0.580179833,Subject A,neutral
0.017373205,0.069659596,0.066927508,0.02794778,-0.439000598,Subject A,neutral
0.017159878,0.092201726,0.090586122,0.001877779,-0.216702019,Subject A,neutral
0.016945918,-0.106659561,0.153257123,-0.05857005,-0.132181888,Subject A,neutral
0.016731315,-0.212892734,0.200506774,-0.098761712,-0.254646236,Subject A,neutral
0.016516057,-0.103971742,0.179342024,-0.083931402,-0.450429008,Subject A,neutral
0.016300134,0.00075757,0.110134822,-0.042812836,-0.549255531,Subject A,neutral
0.016083529,-0.130065284,0.071599455,-0.039902025,-0.524256768,Subject A,neutral
0.015866227,-0.399749033,0.111556792,-0.102158543,-0.483958028,Subject A,neutral
0.01564821,-0.500222202,0.196704288,-0.182683607,-0.515672311,Subject A,neutral
0.015429457,-0.321897052,0.259648286,-0.207281104,-0.571904056,Subject A,neutral
0.015209948,-0.098072236,0.27472492,-0.152979793,-0.518450841,Subject A,neutral
0.01498966,-0.093166442,0.268211249,-0.066616384,-0.296192108,Subject A,neutral
0.014768571,-0.263756986,0.264466349,-0.005186166,-0.030681144,Subject A,neutral
0.014546657,-0.350275282,0.249843792,0.023452732,0.053988307,Subject A,neutral
0.014323895,-0.262825235,0.200218597,0.049428531,-0.138726916,Subject A,neutral
0.01410026,-0.217942755,0.125758015,0.086915514,-0.458756606,Subject A,neutral
0.013875729,-0.421849107,0.065940191,0.114560609,-0.64610772,Subject A,neutral
0.013650282,-0.729923553,0.040878844,0.109262502,-0.569504584,Subject A,neutral
0.013423896,-0.777965943,0.026309365,0.079351264,-0.312351528,Subject A,neutral
0.013196551,-0.459361991,-0.013005571,0.053819018,-0.063564441,Subject A,neutral
0.012968226,-0.122132437,-0.074174291,0.048854437,0.02763733,Subject A,neutral
0.0127389,-0.172375426,-0.113454149,0.056618412,-0.086130387,Subject A,neutral
0.012508556,-0.545555412,-0.094046543,0.062425079,-0.348468087,Subject A,neutral
0.012277175,-0.742612665,-0.029232924,0.060062569,-0.611003671,Subject A,neutral
0.012044737,-0.44443827,0.027807611,0.047776775,-0.695262187,Subject A,neutral
0.011811224,0.058248532,0.036505051,0.020673486,-0.534904119,Subject A,neutral
0.011576618,0.202306724,0.006975336,-0.021792587,-0.278114034,Subject A,neutral
0.0113409,-0.140583104,-0.015831082,-0.063178693,-0.175276332,Subject A,neutral
0.011104055,-0.491981011,-0.001360024,-0.077757945,-0.306293683,Subject A,neutral
0.010866067,-0.365549515,0.037908736,-0.059304104,-0.459815656,Subject A,neutral
0.010626922,0.118149562,0.064093129,-0.036887278,-0.359813456,Subject A,neutral
0.010386607,0.378874721,0.054442565,-0.050554174,-0.014673687,Subject A,neutral
0.010145111,0.097075246,0.025757259,-0.108169042,0.238142203,Subject A,neutral
0.009902422,-0.399370709,0.023105541,-0.172754207,0.095876287,Subject A,neutral
0.009658531,-0.558524281,0.080977678,-0.196619544,-0.343618698,Subject A,neutral
0.009413429,-0.29156177,0.186960324,-0.1649887,-0.669863333,Subject A,neutral
0.009167107,-0.051778086,0.28221251,-0.104036709,-0.609328214,Subject A,neutral
0.008919558,-0.208477527,0.305075926,-0.050543443,-0.285186968,Subject A,neutral
0.008670774,-0.521216781,0.240767659,-0.019966042,-0.003402343,Subject A,neutral
0.008420749,-0.416233891,0.129831022,-0.005833023,0.102508608,Subject A,neutral
0.008169475,0.243386704,0.029798805,-0.003843893,0.128087654,Subject A,neutral
0.00791695,0.878040463,-0.028281916,-0.023750455,0.178684563,Subject A,neutral
0.007663169,0.825655697,-0.049380776,-0.069758641,0.218677364,Subject A,neutral
0.00740813,0.141912984,-0.053590041,-0.11745225,0.152478701,Subject A,neutral
0.00715183,-0.453405993,-0.055239312,-0.127861006,-0.02274617,Subject A,neutral
0.006894268,-0.437012173,-0.059350358,-0.09195528,-0.20082476,Subject A,neutral
0.006635444,-0.054679765,-0.067588721,-0.049375957,-0.283621605,Subject A,neutral
0.006375357,0.102809488,-0.08004601,-0.046506347,-0.258177319,Subject A,neutral
0.006114009,-0.092130884,-0.091660811,-0.077769126,-0.146722619,Subject A,neutral
0.005851402,-0.19836783,-0.092396149,-0.087919274,0.046131544,Subject A,neutral
0.005587536,0.104551598,-0.075847812,-0.041026987,0.268892901,Subject A,neutral
0.005322415,0.521162818,-0.048197954,0.029727914,0.365690997,Subject A,neutral
0.00505604,0.527676939,-0.025041507,0.05804357,0.212977271,Subject A,neutral
0.004788417,0.099088475,-0.015538585,0.022070966,-0.068911781,Subject A,neutral
0.004519548,-0.226669182,-0.01066726,-0.033002931,-0.163522846,Subject A,neutral
0.00424944,-0.036723928,0.006493758,-0.050863892,0.096321282,Subject A,neutral
0.003978097,0.437393943,0.035183473,-0.02498676,0.497050244,Subject A,neutral
0.003705525,0.641755223,0.049163079,0.007567503,0.666560302,Subject A,neutral
0.003431733,0.407962595,0.026697263,0.022567875,0.507980765,Subject A,neutral
0.003156729,0.11250783,-0.012686897,0.037300546,0.286057658,Subject A,neutral
0.002880523,0.125848358,-0.019898981,0.075532209,0.252266384,Subject A,neutral
0.002603128,0.331947605,0.021247621,0.122007548,0.333657284,Subject A,neutral
0.002324559,0.35130035,0.056245357,0.135292842,0.313471762,Subject A,neutral
0.00204483,0.108152214,0.011478041,0.103168427,0.20319831,Subject A,neutral
0.001763962,-0.078780537,-0.113615092,0.059634044,0.231263507,Subject A,neutral
0.001481973,-0.003511951,-0.233284179,0.037510194,0.466254528,Subject A,neutral
0.001198884,0.073500331,-0.269270763,0.026399101,0.633349187,Subject A,neutral
0.000914716,-0.230768458,-0.235649532,-0.003509839,0.38825234,Subject A,neutral
0.00062949,-0.84356547,-0.209366614,-0.0507935,-0.304633544,Subject A,neutral
0.000343229,-1.244087677,-0.235533359,-0.082359758,-1.118567057,Subject A,neutral
5.6e-05,-1.078096959,-0.29065411,-0.082884776,-1.640151845,Subject A,neutral
-0.000232306,-0.585647171,-0.329500974,-0.0795562,-1.677828143,Subject A,neutral
-0.000521532,-0.308874393,-0.33545079,-0.104415725,-1.364566982,Subject A,neutral
-0.000811697,-0.462735967,-0.318836254,-0.147204018,-1.01847157,Subject A,neutral
-0.001102775,-0.730918861,-0.289684333,-0.164791719,-0.891713145,Subject A,neutral
-0.001394742,-0.695704886,-0.248139314,-0.134243186,-1.010851241,Subject A,neutral
-0.00168757,-0.355399253,-0.195556158,-0.0797663,-1.220369754,Subject A,neutral
-0.001981231,-0.105196205,-0.144147517,-0.043076744,-1.339949317,Subject A,neutral
-0.002275699,-0.212771622,-0.111092493,-0.039387475,-1.267183506,Subject A,neutral
-0.002570945,-0.44063752,-0.101683725,-0.051020253,-0.986809304,Subject A,neutral
-0.002866941,-0.317533291,-0.101159657,-0.057507975,-0.568241664,Subject A,neutral
-0.003163656,0.233087242,-0.089652813,-0.060805037,-0.172622691,Subject A,neutral
-0.003461063,0.706919722,-0.06397458,-0.078731148,0.011839487,Subject A,neutral
-0.003759128,0.585797549,-0.036801795,-0.11867988,-0.076629391,Subject A,neutral
-0.00405782,-0.011581458,-0.018355717,-0.1617685,-0.280134153,Subject A,neutral
-0.004357108,-0.44663067,-0.012342597,-0.174915083,-0.341253366,Subject A,neutral
-0.004656958,-0.324657708,-0.026600255,-0.140697674,-0.153026678,Subject A,neutral
-0.00495734,0.073536048,-0.068028462,-0.075266827,0.137708765,Subject A,neutral
-0.00525822,0.220587312,-0.122695664,-0.014946468,0.299100473,Subject A,neutral
-0.005559565,0.028332791,-0.15825819,0.013403118,0.247898534,Subject A,neutral
-0.005861337,-0.0925654,-0.156498975,0.006525523,0.086245281,Subject A,neutral
-0.006163503,0.176423022,-0.135610905,-0.024873964,-0.039469616,Subject A,neutral
-0.006466024,0.606410314,-0.131263537,-0.069309497,-0.059538602,Subject A,neutral
-0.006768863,0.675062472,-0.155126562,-0.115552038,-0.000781323,Subject A,neutral
-0.007071982,0.209259826,-0.175733738,-0.148985795,0.049724229,Subject A,neutral
-0.007375341,-0.379361554,-0.146986033,-0.156936178,0.014613794,Subject A,neutral
-0.007678899,-0.556539647,-0.061500386,-0.141139819,-0.097092875,Subject A,neutral
-0.007982612,-0.254979953,0.029746724,-0.120985744,-0.192143767,Subject A,neutral
-0.008286439,0.118347549,0.063935896,-0.11752293,-0.196534333,Subject A,neutral
-0.008590334,0.217606396,0.033435827,-0.132542491,-0.141327441,Subject A,neutral
-0.008894251,0.136317849,-0.007543747,-0.149322875,-0.120214055,Subject A,neutral
-0.009198144,0.19075958,-0.007998724,-0.157303648,-0.176488441,Subject A,neutral
-0.009501965,0.460052454,0.024110313,-0.168076038,-0.265841842,Subject A,neutral
-0.009805668,0.701143498,0.042872536,-0.197639344,-0.322770859,Subject A,neutral
-0.010109207,0.700794836,0.026370441,-0.237680577,-0.315877444,Subject A,neutral
-0.010412535,0.543768413,-0.0040618,-0.2587046,-0.230871946,Subject A,neutral
-0.010715606,0.441494743,-0.022765336,-0.244729709,-0.060423906,Subject A,neutral
-0.011018374,0.401197167,-0.034809469,-0.212004386,0.150173541,Subject A,neutral
-0.011320795,0.2276307,-0.062096231,-0.184321525,0.292556093,Subject A,neutral
-0.011622822,-0.135707345,-0.106604149,-0.15913093,0.289099421,Subject A,neutral
-0.011924413,-0.418906771,-0.141172483,-0.11266662,0.19164847,Subject A,neutral
-0.012225521,-0.304074427,-0.136778304,-0.03811491,0.144550644,Subject A,neutral
-0.012526099,0.155489712,-0.091120531,0.03452106,0.229246529,Subject A,neutral
-0.012826101,0.536435816,-0.027469332,0.064202754,0.358845821,Subject A,neutral
-0.013125478,0.507267698,0.028070678,0.040941917,0.359292086,Subject A,neutral
-0.013424185,0.186077105,0.060852427,-0.00248165,0.176190433,Subject A,neutral
-0.013722174,-0.04195596,0.064002193,-0.020464068,-0.028477437,Subject A,neutral
-0.014019392,0.011565072,0.034743574,0.005699481,-0.039287673,Subject A,neutral
-0.014315788,0.183623502,-0.017940197,0.05780127,0.162016614,Subject A,neutral
-0.014611311,0.258715166,-0.067511343,0.106582944,0.375824536,Subject A,neutral
-0.014905915,0.268744985,-0.08102631,0.140559679,0.42326485,Subject A,neutral
-0.015199551,0.385727306,-0.041939526,0.165910077,0.332423346,Subject A,neutral
-0.015492156,0.595232001,0.034384228,0.186333222,0.259667583,Subject A,neutral
-0.015783663,0.655395395,0.107366774,0.196334035,0.29867909,Subject A,neutral
-0.016074014,0.4375913,0.139698194,0.195560824,0.420920481,Subject A,neutral
-0.016363178,0.173699747,0.127342137,0.197097903,0.552313661,Subject A,neutral
-0.016651115,0.218037468,0.102586885,0.212275353,0.633162819,Subject A,neutral
-0.016937738,0.594008819,0.103947105,0.231836976,0.613506697,Subject A,neutral
-0.017222926,0.932081523,0.142407353,0.231496887,0.466113312,Subject A,neutral
-0.01750661,0.917616985,0.196116689,0.198613474,0.245538137,Subject A,neutral
-0.017788837,0.680491133,0.230494581,0.14992292,0.094941447,Subject A,neutral
-0.018069663,0.610142292,0.219193542,0.119606352,0.125650512,Subject A,neutral
-0.018348953,0.834239978,0.156817018,0.12764345,0.272896351,Subject A,neutral
-0.018626364,1.052164453,0.067185296,0.158772681,0.323799941,Subject A,neutral
-0.018901711,0.943475372,-0.001864229,0.174947276,0.142715189,Subject A,neutral
-0.019175338,0.605348752,-0.008355159,0.152088215,-0.146993185,Subject A,neutral
-0.019447803,0.437701751,0.048650872,0.102974258,-0.268093942,Subject A,neutral
-0.019718904,0.622081738,0.127037235,0.05957764,-0.098418597,Subject A,neutral
-0.019987331,0.867536521,0.178238703,0.036228196,0.170619399,Subject A,neutral
-0.0202521,0.759322175,0.182538886,0.020450989,0.231401656,Subject A,neutral
-0.020514555,0.286784294,0.150331264,0.001894296,0.00083152,Subject A,neutral
-0.020777662,-0.109162611,0.102594743,-0.003103832,-0.292333443,Subject A,neutral
-0.021041681,-0.049805234,0.059280905,0.030404263,-0.381755964,Subject A,neutral
-0.02130134,0.318956848,0.037329232,0.095839183,-0.276177895,Subject A,neutral
-0.021551034,0.487019425,0.044801289,0.148273947,-0.236193422,Subject A,neutral
-0.021794995,0.186197085,0.075114575,0.146809984,-0.448360318,Subject A,neutral
-0.022047671,-0.28927626,0.114832503,0.097573451,-0.796889687,Subject A,neutral
-0.022315395,-0.440559025,0.156972885,0.045801744,-0.99748674,Subject A,neutral
-0.022576377,-0.160943578,0.197594986,0.028542702,-0.90654681,Subject A,neutral
-0.022790179,0.156037667,0.220549678,0.044098317,-0.637046431,Subject A,neutral
-0.022938674,0.111643342,0.204630007,0.066538733,-0.390508422,Subject A,neutral
-0.023054608,-0.220907973,0.159243776,0.078373214,-0.246124062,Subject A,neutral
-0.023197841,-0.411079342,0.138538409,0.082156994,-0.142603052,Subject A,neutral
-0.023401123,-0.210312248,0.194451146,0.0862617,-0.030570748,Subject A,neutral
-0.023646334,0.160971684,0.313237461,0.0901234,0.012206541,Subject A,neutral
-0.023893044,0.316631449,0.418989132,0.086681348,-0.143583134,Subject A,neutral
-0.024119481,0.185780245,0.449414932,0.072460756,-0.483479094,Subject A,neutral
-0.024331988,0.053447418,0.414101333,0.047893061,-0.77808396,Subject A,neutral
-0.024545031,0.141574835,0.36920478,0.011151685,-0.776050579,Subject A,neutral
-0.024762863,0.314077491,0.351216055,-0.036751427,-0.478211563,Subject A,neutral
