timestamps,TP9,AF7,AF8,TP10,Subject,Emotion
0.009675916,-0.840165274,0.212271148,0.290184518,-1.459098521,Subject C,neutral
0.009420561,-1.676107396,0.067780715,0.338543976,-2.220081704,Subject C,neutral
0.009165414,-2.543358877,0.025551776,0.421657834,-3.206479143,Subject C,neutral
0.008910518,-3.081622238,0.034060962,0.528785683,-4.06847189,Subject C,neutral
0.008655917,-3.419588759,-0.015559444,0.581239539,-4.706335835,Subject C,neutral
0.008401652,-3.994126279,-0.188621839,0.529890941,-5.364132881,Subject C,neutral
0.008147763,-4.959741945,-0.454782864,0.435097823,-6.252814212,Subject C,neutral
0.007894288,-5.957868608,-0.727887493,0.413917756,-7.208629026,Subject C,neutral
0.007641265,-6.546769818,-0.94497499,0.504888369,-7.842469482,Subject C,neutral
0.007388728,-6.731260288,-1.10426037,0.614850702,-7.999713363,Subject C,neutral
0.007136713,-6.900116166,-1.235169131,0.6220562,-7.94710109,Subject C,neutral
0.006885253,-7.25985728,-1.342928624,0.517813045,-8.035447652,Subject C,neutral
0.006634378,-7.523741515,-1.390920556,0.413974425,-8.242061533,Subject C,neutral
0.006384119,-7.274890388,-1.340034567,0.404955741,-8.162638098,Subject C,neutral
0.006134504,-6.51953289,-1.200390174,0.455647795,-7.482094209,Subject C,neutral
0.005885561,-5.695633547,-1.035125219,0.454459536,-6.365165742,Subject C,neutral
0.005637314,-5.13376522,-0.907742928,0.360087011,-5.299052641,Subject C,neutral
0.005389791,-4.687165092,-0.827900542,0.254642388,-4.583088155,Subject C,neutral
0.005143015,-4.005641308,-0.753433486,0.240970537,-4.077056248,Subject C,neutral
0.004897011,-3.068283841,-0.643264068,0.317884651,-3.477331291,Subject C,neutral
0.0046518,-2.252589998,-0.500103908,0.384942647,-2.728028757,Subject C,neutral
0.004407405,-1.841592372,-0.359846092,0.361083329,-2.042318728,Subject C,neutral
0.004163846,-1.634574009,-0.250486322,0.268613769,-1.563719508,Subject C,neutral
0.003921143,-1.20757548,-0.174153282,0.191277826,-1.175776967,Subject C,neutral
0.003679314,-0.497238983,-0.128288319,0.172823123,-0.721089902,Subject C,neutral
0.003438377,0.079563941,-0.128867518,0.18133469,-0.286384304,Subject C,neutral
0.003198346,0.153815644,-0.197679374,0.167448484,-0.113001989,Subject C,neutral
0.002959236,-0.113769712,-0.326398556,0.127280424,-0.235883874,Subject C,neutral
0.00272106,-0.243069412,-0.464707105,0.088800037,-0.365651066,Subject C,neutral
0.00248383,-0.054803264,-0.551464856,0.052571246,-0.218350112,Subject C,neutral
0.002247555,0.136033836,-0.555149258,-0.018394743,0.124073048,Subject C,neutral
0.002012243,0.010725523,-0.483207962,-0.137703926,0.317917253,Subject C,neutral
0.0017779,-0.257074318,-0.363676038,-0.25296802,0.217830525,Subject C,neutral
0.001544529,-0.194955044,-0.229538253,-0.297650154,0.092439267,Subject C,neutral
0.001312133,0.32949996,-0.11233912,-0.27858255,0.295221125,Subject C,neutral
0.001080709,0.891453906,-0.028540222,-0.272849662,0.806143195,Subject C,neutral
0.000850256,1.025811449,0.035621601,-0.321605845,1.240205337,Subject C,neutral
0.000620768,0.805630495,0.114597398,-0.358327824,1.320307829,Subject C,neutral
0.000392238,0.725260113,0.232212387,-0.279260817,1.215072288,Subject C,neutral
0.000164659,1.053036064,0.382353443,-0.079592892,1.312873729,Subject C,neutral
-6.2e-05,1.503932251,0.536051362,0.116814248,1.719897142,Subject C,neutral
-0.000287691,1.639196711,0.659021614,0.181415383,2.123477936,Subject C,neutral
-0.000512484,1.444067741,0.728064797,0.114747157,2.193624417,Subject C,neutral
-0.000736374,1.325472099,0.745548226,0.030285225,1.996355594,Subject C,neutral
-0.000959375,1.554294659,0.741455299,0.012722563,1.881573497,Subject C,neutral
-0.001181502,1.903890615,0.751470713,0.029462671,2.012356398,Subject C,neutral
-0.00140277,1.961742538,0.785095354,0.000705573,2.176590246,Subject C,neutral
-0.001623195,1.693214426,0.816242353,-0.073666983,2.124134544,Subject C,neutral
-0.001842795,1.503910647,0.810493644,-0.101995311,1.951460585,Subject C,neutral
-0.002061586,1.714321677,0.764545447,-0.019676583,1.993955017,Subject C,neutral
-0.002279588,2.140388948,0.715352881,0.116701228,2.362999591,Subject C,neutral
-0.002496819,2.335220198,0.704304998,0.18307632,2.760717225,Subject C,neutral
-0.002713296,2.175526266,0.733618402,0.126232163,2.843937039,Subject C,neutral
-0.002929037,2.019874596,0.766638225,0.021117455,2.665975512,Subject C,neutral
-0.003144061,2.224906398,0.772091945,-0.017622717,2.601304536,Subject C,neutral
-0.003358383,2.652592237,0.75554206,0.038066227,2.840609762,Subject C,neutral
-0.003572023,2.827504816,0.739471085,0.112121111,3.127341891,Subject C,neutral
-0.003784995,2.557013916,0.724870757,0.127176464,3.093237419,Subject C,neutral
-0.003997318,2.20196156,0.69077052,0.09552664,2.745948155,Subject C,neutral
-0.004209006,2.219186254,0.63112316,0.088681204,2.455683898,Subject C,neutral
-0.004420076,2.558094685,0.574384491,0.134481872,2.465530216,Subject C,neutral
-0.004630543,2.71665471,0.55571492,0.179144269,2.590219013,Subject C,neutral
-0.004840421,2.407038304,0.576786058,0.158649789,2.503776134,Subject C,neutral
-0.005049726,1.953891191,0.603529709,0.080578786,2.216473411,Subject C,neutral
-0.005258472,1.878175354,0.602338234,0.011000436,2.087324522,Subject C,neutral
-0.005466671,2.203245775,0.570408359,-0.010121414,2.341529182,Subject C,neutral
-0.005674337,2.406842728,0.530017391,-0.009830392,2.730037106,Subject C,neutral
-0.005881482,2.095573595,0.502379746,-0.02836502,2.799260139,Subject C,neutral
-0.006088119,1.521173781,0.494023095,-0.052731927,2.445537842,Subject C,neutral
-0.006294258,1.264576412,0.504107853,-0.036243478,2.043169833,Subject C,neutral
-0.006499911,1.504342413,0.534265118,0.024950757,1.97524952,Subject C,neutral
-0.006705093,1.817714452,0.585371128,0.074153981,2.170648279,Subject C,neutral
-0.006909817,1.751121433,0.64764941,0.066271258,2.237293163,Subject C,neutral
-0.007114097,1.397568476,0.701176644,0.0282291,1.994093401,Subject C,neutral
-0.007317943,1.23781989,0.730007955,0.021124792,1.693346804,Subject C,neutral
-0.007521366,1.484229194,0.73334982,0.057314337,1.665199646,Subject C,neutral
-0.007724382,1.804336075,0.720649382,0.087763681,1.88786519,Subject C,neutral
-0.007927011,1.776959406,0.700664678,0.074360298,2.050117642,Subject C,neutral
-0.008129268,1.4616827,0.681183793,0.044931644,1.984489364,Subject C,neutral
-0.008331157,1.321971388,0.675313415,0.055425632,1.869722707,Subject C,neutral
-0.008532678,1.603697812,0.696937835,0.109898795,1.946408865,Subject C,neutral
-0.00873384,1.992951748,0.743995368,0.145685388,2.152688267,Subject C,neutral
-0.008934677,2.008155523,0.788940501,0.109691109,2.182611376,Subject C,neutral
-0.009135215,1.611740882,0.792477274,0.03400552,1.896862339,Subject C,neutral
-0.009335432,1.241789546,0.734357791,0.010565823,1.538193668,Subject C,neutral
-0.009535267,1.236870823,0.636633417,0.085503903,1.44700566,Subject C,neutral
-0.009734713,1.421844158,0.555971719,0.199951575,1.62674388,Subject C,neutral
-0.009933873,1.386519985,0.544410365,0.253945941,1.725976823,Subject C,neutral
-0.010132862,1.058180173,0.607693583,0.218345112,1.483715188,Subject C,neutral
-0.010331599,0.794451222,0.699387061,0.159630017,1.078891086,Subject C,neutral
-0.010529793,0.886980123,0.759553647,0.151246142,0.923456549,Subject C,neutral
-0.010727311,1.158703891,0.761146784,0.183858345,1.144204949,Subject C,neutral
-0.010924543,1.200802715,0.718491262,0.183950828,1.414018005,Subject C,neutral
-0.011122093,0.931299942,0.658311387,0.113461794,1.360387844,Subject C,neutral
-0.011319805,0.726336947,0.597404949,0.024122724,1.033764083,Subject C,neutral
-0.011516415,0.942710222,0.550976639,0.001023149,0.833885945,Subject C,neutral
-0.011710978,1.455281652,0.542797107,0.068953884,0.995581239,Subject C,neutral
-0.01190488,1.810655911,0.58591514,0.173189284,1.304797972,Subject C,neutral
-0.012101121,1.786083795,0.655856678,0.245237575,1.399027973,Subject C,neutral
-0.012299994,1.620369264,0.702121918,0.265626899,1.23509317,Subject C,neutral
-0.012496256,1.636963896,0.695855336,0.257718962,1.108768829,Subject C,neutral
-0.012684328,1.790989686,0.658893863,0.24060952,1.227191194,Subject C,neutral
-0.012868463,1.754834367,0.637484818,0.210623701,1.424852314,Subject C,neutral
-0.013063126,1.412000782,0.650314431,0.166987879,1.398662328,Subject C,neutral
-0.013274659,1.069266682,0.671180612,0.12856918,1.128950387,Subject C,neutral
-0.013481285,1.077360355,0.664941926,0.105669172,0.909551593,Subject C,neutral
-0.013642568,1.355042107,0.632277363,0.072656167,0.946445868,Subject C,neutral
-0.013740383,1.459752108,0.609685575,0.00244587,1.070296361,Subject C,neutral
-0.013807472,1.137260848,0.625518836,-0.072145755,0.960316655,Subject C,neutral
-0.013903685,0.646741719,0.664381665,-0.071295896,0.592519737,Subject C,neutral
-0.01406176,0.435944415,0.681414938,0.033589212,0.31026854,Subject C,neutral
-0.014263562,0.582513442,0.650453506,0.161654425,0.398718358,Subject C,neutral
-0.014468646,0.725996212,0.592074265,0.201111397,0.710172561,Subject C,neutral
-0.014655216,0.573059232,0.550341733,0.140282997,0.847403639,Subject C,neutral
-0.014829595,0.297092518,0.544176824,0.081912873,0.68167895,Subject C,neutral
-0.015006227,0.28894207,0.546628715,0.113768643,0.518667447,Subject C,neutral
-0.015189339,0.592312031,0.5137669,0.196308139,0.678239971,Subject C,neutral
-0.015373321,0.806380311,0.432767039,0.212458722,1.044609215,Subject C,neutral
-0.015552901,0.621904432,0.341512669,0.120888344,1.198342578,Subject C,neutral
-0.015728336,0.276048033,0.300198381,0.018975771,0.963766204,Subject C,neutral
-0.015902591,0.278782178,0.338423707,0.029311422,0.641111812,Subject C,neutral
-0.016077013,0.738356842,0.424181026,0.146291913,0.613955559,Subject C,neutral
-0.016250618,1.184526068,0.484488429,0.2359866,0.859565628,Subject C,neutral
-0.016422098,1.148443497,0.462570281,0.193232108,1.00956166,Subject C,neutral
-0.016591255,0.749553954,0.364438289,0.06350639,0.863104143,Subject C,neutral
-0.016758646,0.526561901,0.256476756,-0.015023211,0.661234073,Subject C,neutral
-0.016924617,0.747953305,0.212708453,0.02913863,0.766664701,Subject C,neutral
-0.017088983,1.105109177,0.250106702,0.130628976,1.177970509,Subject C,neutral
-0.017251401,1.159151386,0.309964752,0.176190381,1.506179448,Subject C,neutral
-0.017411735,0.919493332,0.312537313,0.136380837,1.434107705,Subject C,neutral
-0.017570042,0.787269687,0.234578455,0.087098321,1.072415819,Subject C,neutral
-0.017726365,0.959210375,0.121127998,0.105138519,0.778025869,Subject C,neutral
-0.017880637,1.106999214,0.017220274,0.169350797,0.690558014,Subject C,neutral
-0.018032737,0.783308303,-0.089881876,0.187864791,0.589899858,Subject C,neutral
-0.018182577,0.037620031,-0.241881534,0.113872048,0.245985291,Subject C,neutral
-0.018330118,-0.575431639,-0.437021212,0.001033343,-0.220046596,Subject C,neutral
-0.018475328,-0.63664511,-0.612232195,-0.07019656,-0.459427633,Subject C,neutral
-0.01861815,-0.344445524,-0.702216432,-0.093812066,-0.346504273,Subject C,neutral
-0.018758515,-0.226277681,-0.705245271,-0.131877734,-0.147864485,Subject C,neutral
-0.018896358,-0.463329858,-0.686349702,-0.215079283,-0.176158096,Subject C,neutral
-0.019031623,-0.706827219,-0.719533312,-0.292838192,-0.397481118,Subject C,neutral
-0.019164261,-0.601460593,-0.825018175,-0.302974646,-0.522024843,Subject C,neutral
-0.019294219,-0.289807176,-0.952308591,-0.26008825,-0.43468992,Subject C,neutral
-0.019421441,-0.211322106,-1.017297877,-0.236963293,-0.353581782,Subject C,neutral
-0.019545874,-0.483191915,-0.964795949,-0.267843349,-0.500314006,Subject C,neutral
-0.019667469,-0.736603804,-0.813795554,-0.310735914,-0.76802585,Subject C,neutral
-0.01978618,-0.656595461,-0.649856693,-0.315515014,-0.87729364,Subject C,neutral
-0.019901962,-0.472461312,-0.564045624,-0.294215737,-0.797884128,Subject C,neutral
-0.020014769,-0.674398452,-0.587451522,-0.295404828,-0.809739764,Subject C,neutral
-0.020124559,-1.302264014,-0.678007649,-0.325304243,-1.085050271,Subject C,neutral
-0.02023129,-1.788100877,-0.760702913,-0.328388493,-1.374750177,Subject C,neutral
-0.020334923,-1.618425811,-0.773535981,-0.254819829,-1.264649762,Subject C,neutral
-0.02043542,-0.977876253,-0.689448575,-0.129966292,-0.695660175,Subject C,neutral
-0.020532745,-0.54196986,-0.521833932,-0.039975849,-0.084248536,Subject C,neutral
-0.020626862,-0.675291404,-0.317956113,-0.044886145,0.119487567,Subject C,neutral
-0.020717736,-1.027182026,-0.132785558,-0.114176588,-0.084723967,Subject C,neutral
-0.020805334,-0.999561234,0.003187912,-0.158581514,-0.282024019,Subject C,neutral
-0.020889623,-0.486929821,0.092875142,-0.124589819,-0.139167908,Subject C,neutral
-0.020970574,0.01992936,0.154540848,-0.044805875,0.230159108,Subject C,neutral
-0.021048155,0.069793832,0.20175156,0.009937455,0.452711382,Subject C,neutral
-0.02112234,-0.185904938,0.239690416,0.013047834,0.378778913,Subject C,neutral
-0.0211931,-0.208983234,0.273285048,-0.000488028,0.252361732,Subject C,neutral
-0.02126041,0.216373452,0.31215848,0.006704249,0.372343004,Subject C,neutral
-0.021324245,0.691503408,0.36378875,0.02334612,0.694368903,Subject C,neutral
-0.021384582,0.700484965,0.421819859,0.013532872,0.882763488,Subject C,neutral
-0.0214414,0.254956276,0.464515881,-0.021228891,0.735236448,Subject C,neutral
-0.021494677,-0.142187397,0.466265102,-0.032246227,0.427067079,Subject C,neutral
-0.021544396,-0.156784859,0.409927264,0.012768114,0.262775676,Subject C,neutral
-0.021590538,-0.038946903,0.29247535,0.07528465,0.270576671,Subject C,neutral
-0.021633089,-0.253039121,0.128680696,0.080315957,0.184191798,Subject C,neutral
-0.021672034,-0.817456782,-0.045250765,0.003857055,-0.159902233,Subject C,neutral
-0.02170736,-1.230933836,-0.17747301,-0.097449306,-0.549947508,Subject C,neutral
-0.021739053,-1.092672014,-0.225069603,-0.152425488,-0.641996859,Subject C,neutral
-0.021767105,-0.617235383,-0.189160716,-0.150383573,-0.418481865,Subject C,neutral
-0.021791503,-0.378427026,-0.128048774,-0.132520664,-0.248299512,Subject C,neutral
-0.02181224,-0.607978903,-0.118126832,-0.124096858,-0.438916962,Subject C,neutral
-0.021829305,-0.942493897,-0.184698915,-0.107075398,-0.845455208,Subject C,neutral
-0.021842691,-0.926560731,-0.275656067,-0.068147866,-1.04900622,Subject C,neutral
-0.021852392,-0.603117397,-0.315258334,-0.045553108,-0.884580246,Subject C,neutral
-0.021858399,-0.427452732,-0.279850233,-0.093143388,-0.640955219,Subject C,neutral
-0.021860708,-0.646546719,-0.211999575,-0.197049182,-0.679009653,Subject C,neutral
-0.021859314,-0.981965892,-0.170148209,-0.26479347,-0.969127199,Subject C,neutral
-0.021854213,-1.019488007,-0.180233019,-0.224753406,-1.14169684,Subject C,neutral
-0.021845401,-0.752581667,-0.230235719,-0.117493953,-0.966532858,Subject C,neutral
-0.021832878,-0.548863342,-0.290606203,-0.053919255,-0.631160447,Subject C,neutral
-0.021816642,-0.619262603,-0.334085614,-0.086492761,-0.476886718,Subject C,neutral
-0.021796695,-0.738525403,-0.349174276,-0.155110222,-0.564607834,Subject C,neutral
-0.021773039,-0.595685442,-0.343830473,-0.170036082,-0.638436082,Subject C,neutral
-0.021745677,-0.277833347,-0.332777968,-0.121134173,-0.5069862,Subject C,neutral
-0.021714612,-0.206350186,-0.320487839,-0.080367735,-0.316312523,Subject C,neutral
-0.021679851,-0.591347255,-0.304047727,-0.105282916,-0.355817099,Subject C,neutral
-0.021641401,-1.13249721,-0.292396317,-0.169252493,-0.669285606,Subject C,neutral
-0.02159927,-1.376509546,-0.308550957,-0.200051622,-0.990931143,Subject C,neutral
-0.021553467,-1.266710165,-0.36361475,-0.168607846,-1.083331911,Subject C,neutral
-0.021504003,-1.163981655,-0.436954717,-0.114569065,-1.027822265,Subject C,neutral
-0.021450889,-1.32620782,-0.493772411,-0.087128868,-1.091043778,Subject C,neutral
-0.021394139,-1.553705439,-0.520607113,-0.087712666,-1.347681754,Subject C,neutral
-0.021333766,-1.47424741,-0.533876226,-0.085163038,-1.557231287,Subject C,neutral
-0.021269785,-1.072490152,-0.550647285,-0.069180341,-1.465951832,Subject C,neutral
-0.021202212,-0.738856156,-0.558310342,-0.0617029,-1.146932731,Subject C,neutral
-0.021131064,-0.766820462,-0.522919579,-0.074473874,-0.927757298,Subject C,neutral
-0.021056359,-0.977490592,-0.431774891,-0.082188566,-0.990449238,Subject C,neutral
-0.020978114,-0.979087861,-0.321918853,-0.05855823,-1.164534046,Subject C,neutral
-0.02089635,-0.710029035,-0.254260223,-0.026678886,-1.178920054,Subject C,neutral
-0.020811086,-0.53020003,-0.254948904,-0.04348987,-1.025542443,Subject C,neutral
-0.020722342,-0.731975961,-0.292059125,-0.12550429,-0.946019,Subject C,neutral
-0.02063014,-1.123676991,-0.317071662,-0.213128788,-1.074437012,Subject C,neutral
-0.020534501,-1.247964633,-0.317112795,-0.232017473,-1.238456577,Subject C,neutral
-0.020435447,-0.956691108,-0.311851018,-0.183861633,-1.193763156,Subject C,neutral
-0.020333001,-0.590347787,-0.309305866,-0.151567104,-0.963183548,Subject C,neutral
-0.020227185,-0.531937708,-0.290206532,-0.202921071,-0.80822292,Subject C,neutral
-0.020118023,-0.728586349,-0.241969259,-0.303239626,-0.869582848,Subject C,neutral
-0.020005539,-0.808086527,-0.188746868,-0.34563505,-0.970319441,Subject C,neutral
-0.019889755,-0.620361216,-0.172101868,-0.273174346,-0.858869816,Subject C,neutral
-0.019770695,-0.466891166,-0.20712071,-0.151970777,-0.572562238,Subject C,neutral
-0.019648382,-0.698205434,-0.268644963,-0.100256782,-0.425174759,Subject C,neutral
-0.019522839,-1.208463193,-0.320346129,-0.15092548,-0.610853418,Subject C,neutral
-0.019394087,-1.510769107,-0.349984499,-0.218127434,-0.93616213,Subject C,neutral
-0.019262149,-1.322551079,-0.373542058,-0.213239539,-1.045295288,Subject C,neutral
-0.019127049,-0.911253239,-0.407483521,-0.15882284,-0.858848916,Subject C,neutral
-0.01898881,-0.7463314,-0.440457725,-0.150740011,-0.652827746,Subject C,neutral
-0.01884746,-0.904317935,-0.436122978,-0.223557383,-0.674664421,Subject C,neutral
-0.018703024,-1.002280836,-0.367127754,-0.299918329,-0.815661302,Subject C,neutral
-0.018555532,-0.743387016,-0.246976386,-0.284937722,-0.786664757,Subject C,neutral
-0.018405014,-0.344374614,-0.128613097,-0.177184871,-0.553015021,Subject C,neutral
-0.018251499,-0.263856251,-0.071205807,-0.059982068,-0.41457912,Subject C,neutral
-0.018095021,-0.583032925,-0.100407328,-0.000635387,-0.596224716,Subject C,neutral
-0.017935611,-0.868425917,-0.187951171,0.007150526,-0.905044069,Subject C,neutral
-0.017773303,-0.718700594,-0.267820452,0.000421674,-0.951700538,Subject C,neutral
-0.017608129,-0.287629491,-0.286226816,-0.014714003,-0.671188135,Subject C,neutral
-0.017440124,-0.091802907,-0.247878819,-0.053765193,-0.441975278,Subject C,neutral
-0.017269323,-0.342641586,-0.20950296,-0.102230464,-0.610944304,Subject C,neutral
-0.017095764,-0.669557365,-0.219393996,-0.114895256,-1.027327349,Subject C,neutral
-0.016919484,-0.599192319,-0.266234666,-0.077293946,-1.204893665,Subject C,neutral
-0.016740521,-0.171878302,-0.296447656,-0.037589724,-0.926244761,Subject C,neutral
-0.016558913,0.105525008,-0.280187009,-0.048557118,-0.522516701,Subject C,neutral
-0.016374699,-0.093546772,-0.247113373,-0.087818735,-0.465946753,Subject C,neutral
-0.016187917,-0.514666815,-0.250090326,-0.071320463,-0.788312004,Subject C,neutral
-0.015998607,-0.68174596,-0.302433186,0.039091111,-1.059321269,Subject C,neutral
-0.015806811,-0.522482253,-0.36332519,0.16959177,-0.937686179,Subject C,neutral
-0.015612569,-0.421769281,-0.383605146,0.210873125,-0.578860931,Subject C,neutral
-0.015415926,-0.643527628,-0.352792614,0.152879638,-0.394088721,Subject C,neutral
-0.015216925,-0.919371145,-0.296027322,0.100643476,-0.511730558,Subject C,neutral
-0.015015609,-0.783000042,-0.237961541,0.139417738,-0.653997124,Subject C,neutral
-0.014812021,-0.21835866,-0.186085875,0.220608428,-0.555437064,Subject C,neutral
-0.014606206,0.255732196,-0.147495258,0.221657811,-0.329671692,Subject C,neutral
-0.014398206,0.210570579,-0.141903794,0.107450648,-0.292867897,Subject C,neutral
-0.014188064,-0.158144465,-0.182261843,-0.012349862,-0.502019568,Subject C,neutral
-0.013975823,-0.288552486,-0.246248017,-0.003599976,-0.645462769,Subject C,neutral
-0.013761524,0.022714686,-0.282792491,0.139139733,-0.445650013,Subject C,neutral
-0.013545209,0.366366938,-0.259336503,0.284838182,-0.048542032,Subject C,neutral
-0.013326918,0.262550197,-0.202431918,0.307863147,0.123262443,Subject C,neutral
-0.01310669,-0.208190132,-0.177836952,0.215600367,-0.110506903,Subject C,neutral
-0.012884564,-0.497897332,-0.217277678,0.122127655,-0.451954764,Subject C,neutral
-0.012660577,-0.275356066,-0.27229349,0.110594123,-0.48106664,Subject C,neutral
-0.012434764,0.183546026,-0.261261376,0.15248242,-0.155831562,Subject C,neutral
