timestamps,TP9,AF7,AF8,TP10,Subject,Emotion
-0.044753978,0.479766555,-0.018195045,0.055682314,0.487615056,Subject A,neutral
-0.044748697,0.334349939,-0.039670005,0.055700944,0.339782516,Subject A,neutral
-0.044735108,0.417050985,-0.013990986,0.081064891,0.306282753,Subject A,neutral
-0.044713239,0.544487368,0.059462994,0.108477467,0.428235239,Subject A,neutral
-0.04468312,0.491377088,0.15473104,0.102070903,0.5434394,Subject A,neutral
-0.044644785,0.274012003,0.229121349,0.062127671,0.486166069,Subject A,neutral
-0.044598264,0.11920164,0.253365626,0.034358314,0.291754377,Subject A,neutral
-0.044543592,0.176233679,0.237276068,0.060124438,0.159398945,Subject A,neutral
-0.044480804,0.349729356,0.220188942,0.125312895,0.218294286,Subject A,neutral
-0.044409934,0.454679991,0.228894043,0.17277108,0.376415502,Subject A,neutral
-0.044331021,0.461717704,0.245675478,0.166572634,0.435652329,Subject A,neutral
-0.0442441,0.492830583,0.22691073,0.12978699,0.328661046,Subject A,neutral
-0.04414921,0.586518294,0.159757604,0.108591258,0.177971362,Subject A,neutral
-0.044046391,0.580255993,0.093577008,0.110190548,0.118342298,Subject A,neutral
-0.043935684,0.3057705,0.100306894,0.097005206,0.138241523,Subject A,neutral
-0.043817135,-0.136979402,0.197771896,0.044348202,0.142270793,Subject A,neutral
-0.043690792,-0.400576459,0.320244113,-0.017853008,0.110198067,Subject A,neutral
-0.043556704,-0.238130576,0.373845161,-0.038512807,0.113752902,Subject A,neutral
-0.043414926,0.203649045,0.322267461,-0.012011965,0.184485481,Subject A,neutral
-0.043265516,0.50965725,0.217797205,0.010736515,0.23905622,Subject A,neutral
-0.043108532,0.433622708,0.150585918,-0.014718817,0.17613924,Subject A,neutral
-0.042944037,0.148060214,0.166691647,-0.067612404,0.019094835,Subject A,neutral
-0.042772094,0.000278868,0.2317783,-0.084349199,-0.086535061,Subject A,neutral
-0.042592771,0.078406348,0.274406083,-0.037460333,-0.029290844,Subject A,neutral
-0.042406137,0.146606797,0.26366299,0.027929248,0.144727936,Subject A,neutral
-0.042212262,0.013602288,0.23557304,0.047499243,0.289818384,Subject A,neutral
-0.042011219,-0.194231529,0.23772435,0.013733506,0.323686543,Subject A,neutral
-0.041803083,-0.225927938,0.260360275,-0.019888113,0.292642739,Subject A,neutral
-0.041587933,-0.063886488,0.241515244,-0.006037821,0.270719341,Subject A,neutral
-0.041365846,0.058174824,0.141268325,0.046480873,0.244623994,Subject A,neutral
-0.041136903,-0.027517508,-0.006863539,0.096881457,0.148965613,Subject A,neutral
-0.040901184,-0.219573474,-0.127992168,0.12784595,-0.001381756,Subject A,neutral
-0.040658772,-0.306577089,-0.178452574,0.156015444,-0.086356904,Subject A,neutral
-0.040409748,-0.248341169,-0.175670956,0.191313866,-0.030196134,Subject A,neutral
-0.040154194,-0.210940487,-0.163325649,0.211462324,0.064120291,Subject A,neutral
-0.039892195,-0.322745097,-0.162386693,0.192962417,0.005766324,Subject A,neutral
-0.039623833,-0.479008795,-0.160795109,0.15346399,-0.237190416,Subject A,neutral
-0.039349194,-0.4709534,-0.142871657,0.1380038,-0.444306164,Subject A,neutral
-0.039068363,-0.288425534,-0.118840669,0.160450197,-0.369577191,Subject A,neutral
-0.038781427,-0.17221515,-0.119529809,0.180818384,-0.052579198,Subject A,neutral
-0.038488472,-0.296267982,-0.160567901,0.15545899,0.180215173,Subject A,neutral
-0.038189587,-0.50026555,-0.218042704,0.096810651,0.07065452,Subject A,neutral
-0.03788486,-0.483502887,-0.251470992,0.062129947,-0.270303327,Subject A,neutral
-0.03757438,-0.230206379,-0.253938238,0.082885396,-0.492237221,Subject A,neutral
-0.037258237,-0.064856504,-0.265839365,0.125296665,-0.412486761,Subject A,neutral
-0.036936521,-0.229396126,-0.325260013,0.133462099,-0.194561854,Subject A,neutral
-0.036609323,-0.552985467,-0.410928658,0.10123086,-0.092647062,Subject A,neutral
-0.036276736,-0.664162735,-0.452463163,0.082973598,-0.123846581,Subject A,neutral
-0.035938852,-0.453177944,-0.402882768,0.130050024,-0.098198969,Subject A,neutral
-0.035595765,-0.177532605,-0.290368901,0.230312833,0.071825259,Subject A,neutral
-0.035247568,-0.105708056,-0.190728902,0.321598892,0.228233734,Subject A,neutral
-0.034894356,-0.187002721,-0.154622028,0.359564341,0.17725083,Subject A,neutral
-0.034536223,-0.163082994,-0.16894985,0.35816943,-0.04520976,Subject A,neutral
-0.034173264,0.047976075,-0.184543906,0.35977449,-0.197202636,Subject A,neutral
-0.033805575,0.20629898,-0.168540946,0.379451629,-0.09854836,Subject A,neutral
-0.033433251,0.045770765,-0.123867633,0.395668867,0.178736649,Subject A,neutral
-0.033056388,-0.350438746,-0.067781443,0.39397557,0.387311884,Subject A,neutral
-0.032675084,-0.576142939,-0.009287271,0.397654035,0.342700754,Subject A,neutral
-0.032289434,-0.339185122,0.045660925,0.437759813,0.084678397,Subject A,neutral
-0.031899535,0.184670745,0.079157577,0.502283326,-0.180463683,Subject A,neutral
-0.031505486,0.50722509,0.069356914,0.539067568,-0.287965325,Subject A,neutral
-0.031107382,0.33892416,0.018183599,0.515831953,-0.25525412,Subject A,neutral
-0.030705321,-0.124505224,-0.039093454,0.459736576,-0.218226445,Subject A,neutral
-0.030299401,-0.467031845,-0.063894823,0.423048972,-0.269516429,Subject A,neutral
-0.029889718,-0.532571843,-0.056213461,0.419794283,-0.398223614,Subject A,neutral
-0.029476367,-0.525915092,-0.059300217,0.416795092,-0.552801957,Subject A,neutral
-0.029059444,-0.646804321,-0.114585798,0.389185868,-0.689240961,Subject A,neutral
-0.028639043,-0.795189123,-0.211713215,0.363362494,-0.760359258,Subject A,neutral
-0.028215256,-0.763256748,-0.291228535,0.385453563,-0.739101942,Subject A,neutral
-0.027788178,-0.606477062,-0.302589941,0.453426376,-0.683351248,Subject A,neutral
-0.0273579,-0.605458709,-0.254240512,0.505300807,-0.710941541,Subject A,neutral
-0.026924516,-0.836029331,-0.198480904,0.487205763,-0.855886758,Subject A,neutral
-0.02648812,-0.980833364,-0.17234503,0.417078778,-0.982621591,Subject A,neutral
-0.026048804,-0.707402534,-0.167121752,0.3592158,-0.898201207,Subject A,neutral
-0.025606662,-0.125949791,-0.156483292,0.341898821,-0.559796644,Subject A,neutral
-0.025161789,0.301803289,-0.138139892,0.329006148,-0.156542642,Subject A,neutral
-0.024714276,0.299002739,-0.134786574,0.283049264,0.033684152,Subject A,neutral
-0.024264218,0.069116306,-0.158530506,0.228392246,-0.099190116,Subject A,neutral
-0.023811708,-0.002322013,-0.18894222,0.221169162,-0.371048975,Subject A,neutral
-0.023356841,0.166716074,-0.194235894,0.26485665,-0.470170804,Subject A,neutral
-0.022899709,0.292797368,-0.16694191,0.292529694,-0.280660642,Subject A,neutral
-0.022440408,0.141212656,-0.125795292,0.248577537,-0.006297804,Subject A,neutral
-0.02197903,-0.131616949,-0.083784984,0.163179605,0.069381935,Subject A,neutral
-0.02151567,-0.16024618,-0.032350328,0.117672974,-0.088536813,Subject A,neutral
-0.02105042,0.149369815,0.032403442,0.144562033,-0.24986343,Subject A,neutral
-0.020583373,0.473738276,0.082156988,0.192401123,-0.225582395,Subject A,neutral
-0.020114619,0.472899083,0.077470753,0.196908382,-0.093998136,Subject A,neutral
-0.019644253,0.228386833,0.020387942,0.161212384,-0.057462297,Subject A,neutral
-0.019172365,0.143889658,-0.030958607,0.144259567,-0.139729538,Subject A,neutral
-0.018699049,0.42834693,-0.017513143,0.179583787,-0.147674371,Subject A,neutral
-0.018224396,0.819297397,0.052090251,0.229572251,0.047560386,Subject A,neutral
-0.017748501,0.892496139,0.104396271,0.22883604,0.303408502,Subject A,neutral
-0.017271458,0.563892124,0.082016964,0.161709256,0.369086295,Subject A,neutral
-0.016793359,0.167835067,0.010905642,0.081396035,0.201723197,Subject A,neutral
-0.0163143,0.045593093,-0.028363671,0.0479629,0.007056493,Subject A,neutral
-0.015834374,0.178595856,0.007345862,0.059416536,-0.037552322,Subject A,neutral
-0.015353674,0.298187406,0.078879704,0.060900396,0.009008895,Subject A,neutral
-0.014872296,0.270496098,0.117627535,0.020561017,-0.024120793,Subject A,neutral
-0.014390329,0.232194751,0.105282242,-0.025968647,-0.165779322,Subject A,neutral
-0.013907867,0.330567948,0.082200972,-0.020438253,-0.268990207,Subject A,neutral
-0.013424998,0.458573015,0.082951623,0.042233242,-0.221781219,Subject A,neutral
-0.012941813,0.364478928,0.088444803,0.104276105,-0.108541738,Subject A,neutral
-0.012458403,0.000737936,0.053392171,0.113660208,-0.112897212,Subject A,neutral
-0.011974855,-0.356276472,-0.033430987,0.086417413,-0.290022191,Subject A,neutral
-0.011491262,-0.401575779,-0.133175249,0.08488374,-0.493590128,Subject A,neutral
-0.011007713,-0.153784282,-0.196678051,0.13528115,-0.541294025,Subject A,neutral
-0.010524299,0.089321322,-0.206164452,0.18735966,-0.40826968,Subject A,neutral
-0.010041112,0.134298141,-0.179489365,0.173472853,-0.218215894,Subject A,neutral
-0.009558244,0.103610275,-0.15044299,0.096450679,-0.06707344,Subject A,neutral
-0.009075787,0.203439891,-0.150875207,0.030239898,0.079480489,Subject A,neutral
-0.008593833,0.394828024,-0.194329387,0.028559816,0.280682654,Subject A,neutral
-0.008112473,0.445725513,-0.257834694,0.060559248,0.460696854,Subject A,neutral
-0.007631795,0.291416804,-0.285214232,0.056155862,0.44802832,Subject A,neutral
-0.007151887,0.176163386,-0.230801287,-0.002913581,0.212911379,Subject A,neutral
-0.006672838,0.342459696,-0.110477624,-0.065073156,-0.012580136,Subject A,neutral
-0.006194733,0.677374598,-0.00041126,-0.078077546,0.044670644,Subject A,neutral
-0.005717656,0.816502606,0.025679545,-0.047425234,0.371051284,Subject A,neutral
-0.005241691,0.600816001,-0.039865181,-0.014405497,0.665911971,Subject A,neutral
-0.004766923,0.296962642,-0.135937098,0.001810185,0.698535882,Subject A,neutral
-0.004293431,0.282594735,-0.187277505,0.015917503,0.570926983,Subject A,neutral
-0.003821298,0.587385784,-0.160799194,0.037123918,0.564376616,Subject A,neutral
-0.003350602,0.875703252,-0.078550266,0.044976554,0.799274806,Subject A,neutral
-0.002881424,0.898162819,0.012461471,0.016243095,1.13400113,Subject A,neutral
-0.002413839,0.822612017,0.081593549,-0.038468605,1.361150771,Subject A,neutral
-0.001947926,0.986182152,0.131903257,-0.08257408,1.402839756,Subject A,neutral
-0.00148376,1.373149231,0.179834719,-0.097422049,1.300586946,Subject A,neutral
-0.001021417,1.534092983,0.220439938,-0.105228428,1.100717686,Subject A,neutral
-0.000560971,1.114527556,0.221871954,-0.140550943,0.819957648,Subject A,neutral
-0.000102496,0.333352679,0.164493804,-0.203389955,0.502415617,Subject A,neutral
0.000353938,-0.226662271,0.083418631,-0.2511195,0.240625859,Subject A,neutral
0.000808257,-0.272975741,0.055486229,-0.244277959,0.103359137,Subject A,neutral
0.001260395,-0.086029524,0.127046403,-0.197047571,0.059301889,Subject A,neutral
0.001710281,-0.101832992,0.254938868,-0.169895884,0.004044429,Subject A,neutral
0.002157849,-0.354497682,0.33492556,-0.205285469,-0.121514392,Subject A,neutral
0.002603032,-0.481924628,0.299171054,-0.279701332,-0.245595838,Subject A,neutral
0.003045765,-0.249042718,0.180470902,-0.331427475,-0.225264306,Subject A,neutral
0.003485983,0.113177777,0.074788151,-0.331231669,-0.015305274,Subject A,neutral
0.003923623,0.193661305,0.048736728,-0.308969047,0.246716539,Subject A,neutral
0.004358623,-0.065696142,0.09240231,-0.306060969,0.377822743,Subject A,neutral
0.004790923,-0.289303532,0.15241437,-0.31927863,0.367625228,Subject A,neutral
0.005220462,-0.154134069,0.191227263,-0.310446802,0.383281534,Subject A,neutral
0.005647183,0.184955906,0.211057198,-0.266271594,0.527019757,Subject A,neutral
0.006071029,0.29410246,0.235935453,-0.222616971,0.675702473,Subject A,neutral
0.006491946,0.035780218,0.280990898,-0.216670353,0.649470309,Subject A,neutral
0.00690988,-0.234164873,0.333455551,-0.234911408,0.488029248,Subject A,neutral
0.007324779,-0.119319716,0.357638043,-0.235362422,0.432534638,Subject A,neutral
0.007736592,0.297133377,0.324561722,-0.216610119,0.612281812,Subject A,neutral
0.008145271,0.541766308,0.245392206,-0.231876206,0.857141388,Subject A,neutral
0.008550771,0.33655967,0.174633303,-0.316535448,0.897193482,Subject A,neutral
0.008953039,-0.064682293,0.17142386,-0.422600369,0.693959733,Subject A,neutral
0.009352024,-0.199527659,0.249468626,-0.459060196,0.479067379,Subject A,neutral
0.009747675,0.049091267,0.361588295,-0.402502285,0.464893777,Subject A,neutral
0.010139951,0.357490096,0.434590178,-0.339607216,0.604941327,Subject A,neutral
0.01052882,0.398687943,0.425095302,-0.37542484,0.686870274,Subject A,neutral
0.010914231,0.221201815,0.350439122,-0.509962765,0.599103828,Subject A,neutral
0.011296115,0.111041509,0.272184226,-0.636092839,0.425666028,Subject A,neutral
0.011674406,0.190301595,0.248547864,-0.666682857,0.307319049,Subject A,neutral
0.012049085,0.319867677,0.293335435,-0.633337069,0.312222398,Subject A,neutral
0.012420172,0.385686753,0.36987357,-0.631070752,0.457153544,Subject A,neutral
0.012787635,0.483739781,0.421037159,-0.682711223,0.742011884,Subject A,neutral
0.013151328,0.702731784,0.410293916,-0.704053606,1.084391306,Subject A,neutral
0.013511096,0.851040856,0.340358921,-0.617289647,1.283581526,Subject A,neutral
0.013866981,0.60205173,0.237061667,-0.461410649,1.144556827,Subject A,neutral
0.01421923,-0.073698562,0.121019038,-0.351853587,0.651223526,Subject A,neutral
0.014567935,-0.779461631,-0.002837583,-0.341654411,0.005107152,Subject A,neutral
0.014912663,-1.091775291,-0.136261952,-0.364245146,-0.492575071,Subject A,neutral
0.015252769,-1.01856017,-0.277793478,-0.327507708,-0.625117173,Subject A,neutral
0.015588367,-0.953211236,-0.418229547,-0.232217545,-0.411782776,Subject A,neutral
0.015920678,-1.181477338,-0.534453284,-0.165018512,-0.104778935,Subject A,neutral
0.016250604,-1.537394763,-0.586219114,-0.186763203,0.025798875,Subject A,neutral
0.016576715,-1.616885339,-0.533615369,-0.26588441,-0.05449863,Subject A,neutral
0.016895967,-1.287210434,-0.374436313,-0.330405414,-0.139245027,Subject A,neutral
0.01720802,-0.871147162,-0.164559375,-0.352992672,-0.052702163,Subject A,neutral
0.017518072,-0.768451747,0.013959755,-0.358140992,0.125298979,Subject A,neutral
0.017831657,-0.970586418,0.115473508,-0.362588225,0.164243438,Subject A,neutral
0.018144474,-1.079389281,0.159314995,-0.347265898,-0.016763152,Subject A,neutral
0.01844201,-0.818478815,0.196418502,-0.299243946,-0.238353614,Subject A,neutral
0.018717872,-0.389629729,0.256598852,-0.252972015,-0.272164521,Subject A,neutral
0.018993786,-0.212949275,0.330406482,-0.258573231,-0.094612663,Subject A,neutral
0.019310133,-0.382703739,0.390305484,-0.311733876,0.12142748,Subject A,neutral
0.019684986,-0.542331207,0.41961585,-0.344078384,0.227665435,Subject A,neutral
0.020085542,-0.342002477,0.425198473,-0.300030565,0.244269346,Subject A,neutral
0.020451894,0.112538369,0.431469489,-0.208542986,0.279140519,Subject A,neutral
0.020751239,0.397801901,0.463060086,-0.155242442,0.362472707,Subject A,neutral
0.021001652,0.307546404,0.524105492,-0.183757423,0.413987461,Subject A,neutral
0.021243514,0.081551434,0.585777408,-0.245949549,0.368523513,Subject A,neutral
0.021498556,0.046662691,0.598956083,-0.260242889,0.276541269,Subject A,neutral
0.021760387,0.178250442,0.534914603,-0.204092134,0.235750699,Subject A,neutral
0.022014499,0.177338845,0.419949157,-0.130710848,0.251131938,Subject A,neutral
0.022256597,-0.067688479,0.318203951,-0.099619409,0.230454735,Subject A,neutral
0.022492223,-0.295585447,0.269551764,-0.112690715,0.130976829,Subject A,neutral
0.022726584,-0.22596534,0.251401634,-0.128906256,0.046470102,Subject A,neutral
0.022959354,0.046151446,0.212848193,-0.127830099,0.097396801,Subject A,neutral
0.023187502,0.174364101,0.140288511,-0.136362111,0.265423111,Subject A,neutral
0.023409616,0.039533564,0.073488197,-0.18619505,0.402041799,Subject A,neutral
0.023626616,-0.083272156,0.056280979,-0.258924166,0.411476876,Subject A,neutral
0.023839746,0.084681723,0.086695926,-0.293285911,0.367772372,Subject A,neutral
0.024049144,0.403969091,0.122213741,-0.252955299,0.398340139,Subject A,neutral
0.02425419,0.452892527,0.123418182,-0.174031242,0.47489002,Subject A,neutral
0.024454478,0.068266591,0.084287298,-0.129824694,0.404520194,Subject A,neutral
0.024650131,-0.412890484,0.026544659,-0.151154977,0.07638778,Subject A,neutral
0.024841431,-0.538511406,-0.025510382,-0.197631398,-0.338847926,Subject A,neutral
0.025028453,-0.273215288,-0.062452271,-0.212603581,-0.528250758,Subject A,neutral
0.025211077,-0.010297657,-0.085017363,-0.190415759,-0.381130795,Subject A,neutral
0.0253892,-0.064490418,-0.087229859,-0.173358256,-0.114118425,Subject A,neutral
0.025562828,-0.296540483,-0.054348467,-0.189324086,-0.011979295,Subject A,neutral
0.025732022,-0.329855499,0.014155155,-0.215251211,-0.105692866,Subject A,neutral
0.02589681,-0.056207405,0.085554253,-0.211383454,-0.17842806,Subject A,neutral
0.026057169,0.225579382,0.113392585,-0.175446424,-0.060870913,Subject A,neutral
0.026213075,0.205931954,0.082386025,-0.142668833,0.175470567,Subject A,neutral
0.026364524,-0.024381703,0.026221595,-0.134166195,0.349774081,Subject A,neutral
0.02651153,-0.081689683,-0.006269338,-0.127018412,0.415242762,Subject A,neutral
0.0266541,0.218153643,-0.000472433,-0.089857617,0.480224125,Subject A,neutral
0.026792234,0.608203341,0.012365919,-0.036857404,0.601714031,Subject A,neutral
0.026925927,0.681883218,-0.007021262,-0.02155984,0.662463683,Subject A,neutral
0.027055179,0.380445676,-0.058962391,-0.068242702,0.522998083,Subject A,neutral
0.027179998,0.049785846,-0.101436102,-0.128965577,0.249363526,Subject A,neutral
0.027300389,0.004053366,-0.098807051,-0.132849934,0.085513096,Subject A,neutral
0.027416356,0.153989246,-0.06884111,-0.073706179,0.164982787,Subject A,neutral
0.027527901,0.163749633,-0.068516079,-0.021224053,0.325224234,Subject A,neutral
0.02763503,-0.087617,-0.130247281,-0.034980305,0.290935098,Subject A,neutral
0.027737748,-0.346349944,-0.222941963,-0.091229688,0.021845401,Subject A,neutral
0.027836061,-0.319542515,-0.283848803,-0.117594444,-0.213184594,Subject A,neutral
0.027929976,-0.057969389,-0.283884608,-0.08582478,-0.145198535,Subject A,neutral
0.028019501,0.103343529,-0.253178194,-0.038286186,0.176618688,Subject A,neutral
0.028104643,-0.036386888,-0.241368749,-0.02077461,0.45016761,Subject A,neutral
0.028185408,-0.296382605,-0.260678012,-0.021590615,0.483452759,Subject A,neutral
0.028261804,-0.349593122,-0.278398985,0.001043776,0.398126141,Subject A,neutral
0.028333838,-0.143559959,-0.265810196,0.048321569,0.427764576,Subject A,neutral
0.028401521,0.033884913,-0.238477371,0.068654419,0.588406327,Subject A,neutral
0.028464863,-0.065986279,-0.231777842,0.02275041,0.653325286,Subject A,neutral
0.028523875,-0.32686874,-0.243106571,-0.059428586,0.454704072,Subject A,neutral
0.028578571,-0.432726426,-0.22340161,-0.105991175,0.111361842,Subject A,neutral
0.028628966,-0.301181142,-0.13874709,-0.083951911,-0.107481041,Subject A,neutral
0.028675077,-0.188851282,-0.025834342,-0.034216337,-0.098434026,Subject A,neutral
0.028716919,-0.318689978,0.035154945,-0.017634954,-0.021787254,Subject A,neutral
0.02875451,-0.547355868,0.005043285,-0.040321785,-0.078928736,Subject A,neutral
0.028787869,-0.547426356,-0.071206532,-0.051517522,-0.269834002,Subject A,neutral
0.028817017,-0.26576812,-0.113233774,-0.013491611,-0.429155279,Subject A,neutral
0.028841971,-0.02326258,-0.088554151,0.048430494,-0.461983147,Subject A,neutral
0.028862753,-0.103144392,-0.037830471,0.078540054,-0.453982488,Subject A,neutral
0.028879384,-0.376554291,-0.021270643,0.060085968,-0.523039456,Subject A,neutral
0.028891885,-0.469011105,-0.05061815,0.030566741,-0.630364402,Subject A,neutral
0.028900278,-0.243456153,-0.077305565,0.027014703,-0.615279691,Subject A,neutral
0.028904584,0.041613063,-0.042767238,0.036990421,-0.417856115,Subject A,neutral
0.028904827,0.091614607,0.062686862,0.020022746,-0.19833835,Subject A,neutral
0.028901027,-0.044898197,0.18797383,-0.030598995,-0.175877973,Subject A,neutral
0.028893207,-0.079608059,0.264284741,-0.069071385,-0.365629187,Subject A,neutral
0.028881388,0.090294704,0.260919698,-0.048982979,-0.547336253,Subject A,neutral
0.02886559,0.222509445,0.203352078,0.018831115,-0.522059294,Subject A,neutral
0.028845837,0.054283678,0.141941733,0.077277129,-0.341055167,Subject A,neutral
0.028822149,-0.324709564,0.106653818,0.090282239,-0.224285918,Subject A,neutral
0.028794549,-0.553806333,0.091119338,0.080697634,-0.29081701,Subject A,neutral
0.028763061,-0.439802112,0.073590974,0.091258027,-0.450424824,Subject A,neutral
0.028727707,-0.187624807,0.045364339,0.122029023,-0.564733126,Subject A,neutral
0.028688509,-0.13188867,0.018322558,0.128639104,-0.631032868,Subject A,neutral
