timestamps,TP9,AF7,AF8,TP10,Subject,Emotion
0.003962904,-0.06194125,-0.518549167,-0.185898794,-0.021534926,Subject C,neutral
0.004083295,-0.362958593,-0.518256353,-0.238059043,0.01256016,Subject C,neutral
0.004203799,-0.775164734,-0.470133651,-0.282910879,-0.244416173,Subject C,neutral
0.004324394,-0.847683231,-0.387970894,-0.242388159,-0.496254436,Subject C,neutral
0.004445059,-0.544832012,-0.311997377,-0.122099833,-0.448217103,Subject C,neutral
0.004565774,-0.273291575,-0.26625178,-0.009742126,-0.161020282,Subject C,neutral
0.004686519,-0.337697128,-0.234083245,0.025231941,0.055651385,Subject C,neutral
0.004807274,-0.53725005,-0.181575691,0.009697941,0.043351046,Subject C,neutral
0.004928021,-0.438925271,-0.103079979,0.028785922,-0.041405795,Subject C,neutral
0.005048741,0.023254198,-0.035203165,0.115148907,0.015108506,Subject C,neutral
0.005169416,0.411695164,-0.021053278,0.201593211,0.177655983,Subject C,neutral
0.005290029,0.311023258,-0.064140487,0.203256892,0.216333902,Subject C,neutral
0.005410563,-0.145243023,-0.121627411,0.13029496,0.032475786,Subject C,neutral
0.005531003,-0.427080995,-0.141760278,0.082896944,-0.190406242,Subject C,neutral
0.005651332,-0.258569233,-0.107549693,0.129388913,-0.218275187,Subject C,neutral
0.005771536,0.057911186,-0.048488391,0.221639155,-0.078584312,Subject C,neutral
0.005891599,0.056892765,-0.012194412,0.252174179,-0.033113779,Subject C,neutral
0.006011506,-0.278241444,-0.021699696,0.178684307,-0.227410861,Subject C,neutral
0.006131243,-0.50608488,-0.058747691,0.068276193,-0.469971697,Subject C,neutral
0.006250793,-0.322414948,-0.089019311,0.018787452,-0.449112829,Subject C,neutral
0.006370141,0.040289862,-0.099042298,0.054344437,-0.12221531,Subject C,neutral
0.006489271,0.135597686,-0.102787136,0.110831952,0.232080083,Subject C,neutral
0.006608168,-0.102030853,-0.11574431,0.116987907,0.365180599,Subject C,neutral
0.006726816,-0.291235138,-0.131636225,0.068768937,0.339456482,Subject C,neutral
0.006845198,-0.133147699,-0.127195401,0.013389064,0.3767763,Subject C,neutral
0.006963299,0.19378758,-0.086214177,-0.021570122,0.514363358,Subject C,neutral
0.007081101,0.292152959,-0.017307348,-0.054261464,0.554345802,Subject C,neutral
0.007198589,0.083273781,0.050792913,-0.103485446,0.363875378,Subject C,neutral
0.007315744,-0.104286843,0.09101725,-0.148793306,0.096751049,Subject C,neutral
0.007432552,0.00466007,0.095268699,-0.156641689,0.022449027,Subject C,neutral
0.007548995,0.259860815,0.071787493,-0.129094225,0.183378284,Subject C,neutral
0.007665059,0.303445798,0.031196395,-0.098561205,0.33575176,Subject C,neutral
0.007780725,0.073534501,-0.019412283,-0.077340039,0.262528374,Subject C,neutral
0.007895979,-0.097845823,-0.072386351,-0.041522944,0.057442494,Subject C,neutral
0.008010805,0.063172004,-0.119467432,0.021853069,0.002668394,Subject C,neutral
0.008125184,0.37468569,-0.158517703,0.073337724,0.186190014,Subject C,neutral
0.008239102,0.406329049,-0.193612963,0.056659681,0.362309471,Subject C,neutral
0.008352542,0.042898869,-0.224777383,-0.021150796,0.262468972,Subject C,neutral
0.008465486,-0.3359445,-0.243178657,-0.072471205,-0.03279153,Subject C,neutral
0.008577917,-0.317887491,-0.241647428,-0.018991749,-0.16106225,Subject C,neutral
0.008689815,0.022596099,-0.225510881,0.105137545,0.069916162,Subject C,neutral
0.008801161,0.223869193,-0.205423953,0.170468521,0.413532897,Subject C,neutral
0.008911935,0.03219374,-0.181297401,0.091647831,0.457963882,Subject C,neutral
0.009022116,-0.280887305,-0.143479818,-0.066880085,0.118403162,Subject C,neutral
0.009131682,-0.291003234,-0.093474915,-0.153455642,-0.262382275,Subject C,neutral
0.009240612,0.011479035,-0.053084882,-0.096654295,-0.329031091,Subject C,neutral
0.009348886,0.214663908,-0.041100527,0.02139798,-0.119085102,Subject C,neutral
0.009456483,0.052581241,-0.043835977,0.073578519,0.043063371,Subject C,neutral
0.009563381,-0.217000951,-0.023193159,0.037192968,-0.005228229,Subject C,neutral
0.009669561,-0.153340552,0.039200974,-0.003540335,-0.081056542,Subject C,neutral
0.009775003,0.245616658,0.114432515,0.011263742,0.033531353,Subject C,neutral
0.009879687,0.486749324,0.1523576,0.03905322,0.237627994,Subject C,neutral
0.009983594,0.2038426,0.13138856,0.007777867,0.220914534,Subject C,neutral
0.010086702,-0.344981226,0.073044273,-0.075022107,-0.098102946,Subject C,neutral
0.010188992,-0.567237502,0.011509095,-0.128215014,-0.400765108,Subject C,neutral
0.010290444,-0.248024718,-0.034062354,-0.100645939,-0.318392445,Subject C,neutral
0.010391037,0.226675606,-0.05360742,-0.031610624,0.12379245,Subject C,neutral
0.010490754,0.392518772,-0.035384369,-0.000240014,0.525185357,Subject C,neutral
0.010589576,0.269305215,0.018131379,-0.036823714,0.56979474,Subject C,neutral
0.010687487,0.249441732,0.073710355,-0.096767915,0.364749435,Subject C,neutral
0.01078447,0.510735639,0.090774259,-0.110637956,0.257506893,Subject C,neutral
0.010880508,0.760996557,0.06466743,-0.048208488,0.384995816,Subject C,neutral
0.010975586,0.649282936,0.032130546,0.059495299,0.532093702,Subject C,neutral
0.011069689,0.2748498,0.030142372,0.147868088,0.461702425,Subject C,neutral
0.011162802,0.090027604,0.059998071,0.168434817,0.256238187,Subject C,neutral
0.011254909,0.305718147,0.0941826,0.121616969,0.201812596,Subject C,neutral
0.011345997,0.588731101,0.106347487,0.048015673,0.376309363,Subject C,neutral
0.01143605,0.474188095,0.088797413,-0.007551219,0.522428211,Subject C,neutral
0.011525057,-0.025327294,0.051557713,-0.022362787,0.403167974,Subject C,neutral
0.011613006,-0.40789395,0.013565138,-0.000334256,0.154411682,Subject C,neutral
0.011699883,-0.299959851,-0.010921296,0.030523028,0.120609028,Subject C,neutral
0.011785678,0.079500756,-0.022591374,0.029800023,0.367528872,Subject C,neutral
0.011870378,0.204207253,-0.027294249,-0.020008433,0.549628492,Subject C,neutral
0.01195397,-0.089045126,-0.015548812,-0.081169028,0.358178055,Subject C,neutral
0.012036446,-0.411183887,0.029916967,-0.085312433,-0.036417655,Subject C,neutral
0.012117797,-0.357119959,0.094170139,-0.007288876,-0.173019598,Subject C,neutral
0.012198013,-0.054244964,0.116495439,0.096641059,0.100243397,Subject C,neutral
0.012277075,0.014539876,0.044530096,0.140202263,0.416103064,Subject C,neutral
0.012354973,-0.319548743,-0.098845795,0.093176247,0.364363539,Subject C,neutral
0.012431704,-0.654852348,-0.224876278,0.004707662,0.02868722,Subject C,neutral
0.01250727,-0.533701997,-0.261301252,-0.059783303,-0.125237836,Subject C,neutral
0.01258166,-0.046368806,-0.211968498,-0.093342418,0.140865822,Subject C,neutral
0.01265484,0.278584412,-0.133541151,-0.143841662,0.528116035,Subject C,neutral
0.012726781,0.147341662,-0.073597516,-0.230926145,0.582503316,Subject C,neutral
0.0127975,-0.150492386,-0.044589547,-0.287385872,0.264332966,Subject C,neutral
0.012867051,-0.155954616,-0.044367917,-0.216128967,-0.022186099,Subject C,neutral
0.012935434,0.150796407,-0.076907,-0.010350518,0.042296768,Subject C,neutral
0.013002537,0.346154853,-0.142369058,0.213840314,0.2968855,Subject C,neutral
0.013068236,0.147305988,-0.217424934,0.325966254,0.339482024,Subject C,neutral
0.013132602,-0.199157813,-0.262967404,0.306302947,0.070668033,Subject C,neutral
0.013195913,-0.240190177,-0.258752841,0.243899072,-0.179573558,Subject C,neutral
0.013258288,0.072934446,-0.224739615,0.225580577,-0.105837623,Subject C,neutral
0.01331932,0.296909502,-0.200850322,0.256188156,0.150934904,Subject C,neutral
0.013378388,0.066760531,-0.206801461,0.288949639,0.18455287,Subject C,neutral
0.013435629,-0.411661569,-0.22762109,0.303762345,-0.131565318,Subject C,neutral
0.013492288,-0.604069383,-0.238226281,0.327837919,-0.461791796,Subject C,neutral
0.013549287,-0.329440433,-0.234599887,0.380789879,-0.430293665,Subject C,neutral
0.01360522,0.00387771,-0.236417742,0.426072453,-0.096603572,Subject C,neutral
0.013657064,-0.074120456,-0.26304009,0.401304619,0.125356608,Subject C,neutral
0.0137045,-0.486574151,-0.311509244,0.294519477,-0.009677497,Subject C,neutral
0.013752749,-0.717405341,-0.355801656,0.167896089,-0.284127102,Subject C,neutral
0.013807363,-0.490161545,-0.363195204,0.094828934,-0.31283794,Subject C,neutral
0.013864061,-0.120396356,-0.314217369,0.08723137,-0.033444807,Subject C,neutral
0.013908351,-0.086607465,-0.216338505,0.098968428,0.229685549,Subject C,neutral
0.013933858,-0.403876843,-0.104722648,0.089987539,0.180803511,Subject C,neutral
0.01396233,-0.626897439,-0.026163971,0.064933842,-0.102990708,Subject C,neutral
0.014034165,-0.453003527,-0.010937993,0.049104257,-0.315909461,Subject C,neutral
0.014167456,-0.107265608,-0.048146266,0.052584187,-0.321854273,Subject C,neutral
0.014329421,-0.010593926,-0.085862561,0.074746685,-0.276508325,Subject C,neutral
0.014460174,-0.20254929,-0.068166923,0.126198045,-0.358288504,Subject C,neutral
0.014526934,-0.307798288,0.011610382,0.216133216,-0.520641977,Subject C,neutral
0.014547797,-0.085256426,0.093677296,0.316194957,-0.60211502,Subject C,neutral
0.014563169,0.202597263,0.101306876,0.365546859,-0.593838937,Subject C,neutral
0.014594804,0.127652549,0.016285742,0.332031453,-0.645995958,Subject C,neutral
0.014636337,-0.299839761,-0.098294837,0.255664308,-0.800370242,Subject C,neutral
0.014673285,-0.593333679,-0.154826309,0.208743707,-0.863372453,Subject C,neutral
0.014701377,-0.407498919,-0.120054328,0.214331238,-0.649184786,Subject C,neutral
0.014726182,-0.005116412,-0.038011905,0.226294015,-0.279885773,Subject C,neutral
0.014752933,0.062652061,0.019015772,0.199019318,-0.105623073,Subject C,neutral
0.014781332,-0.337043279,0.014744756,0.157933656,-0.298753931,Subject C,neutral
0.014808374,-0.749020001,-0.034395331,0.17555066,-0.62635556,Subject C,neutral
0.014832676,-0.721972907,-0.091840716,0.273986142,-0.708161998,Subject C,neutral
0.014855183,-0.38467767,-0.133201,0.374583909,-0.462625642,Subject C,neutral
0.014877168,-0.254012372,-0.146844647,0.371566918,-0.196735279,Subject C,neutral
0.014898794,-0.537110335,-0.122848295,0.25485627,-0.22512842,Subject C,neutral
0.014919468,-0.849126921,-0.058395251,0.129685214,-0.487142627,Subject C,neutral
0.014938811,-0.710995941,0.030034538,0.096761196,-0.635729319,Subject C,neutral
0.014956973,-0.167600656,0.113117515,0.136728154,-0.478201592,Subject C,neutral
0.01497426,0.276768398,0.169377856,0.145318956,-0.205022398,Subject C,neutral
0.014990773,0.303341906,0.193199183,0.073422076,-0.12450581,Subject C,neutral
0.015006415,0.151474647,0.184688133,-0.009137923,-0.263388993,Subject C,neutral
0.015021102,0.244284436,0.144152064,-0.006072003,-0.355864675,Subject C,neutral
0.015034861,0.58251265,0.082284507,0.078663086,-0.222841361,Subject C,neutral
0.015047774,0.720089072,0.025276368,0.141384806,-0.032179604,Subject C,neutral
0.015059885,0.356876512,-0.003562678,0.101851413,-0.09295932,Subject C,neutral
0.015071192,-0.238704341,-0.006692388,-0.005811682,-0.447912838,Subject C,neutral
0.015081687,-0.539143089,-0.006312308,-0.07785732,-0.79218577,Subject C,neutral
0.015091386,-0.389904191,-0.011618306,-0.055480659,-0.827940885,Subject C,neutral
0.015100317,-0.138835961,0.000354796,0.024981151,-0.605658133,Subject C,neutral
0.015108504,-0.123947808,0.06249019,0.086058061,-0.424158842,Subject C,neutral
0.015115959,-0.23010101,0.174670421,0.089142415,-0.434723217,Subject C,neutral
0.01512269,-0.102524831,0.28753661,0.052035366,-0.473404215,Subject C,neutral
0.015128706,0.299396736,0.335730078,0.000667905,-0.330331874,Subject C,neutral
0.015134023,0.58395904,0.29395923,-0.071633049,-0.072672553,Subject C,neutral
0.015138651,0.426229219,0.203626648,-0.180254867,0.031929089,Subject C,neutral
0.015142599,0.023069359,0.140788918,-0.296219708,-0.109717039,Subject C,neutral
0.015145874,-0.11895073,0.149961825,-0.348886603,-0.264720642,Subject C,neutral
0.015148481,0.188946056,0.205371802,-0.297567994,-0.16905143,Subject C,neutral
0.015150425,0.583204006,0.239825388,-0.18360944,0.120055871,Subject C,neutral
0.015151712,0.613352435,0.212547829,-0.090032173,0.291450259,Subject C,neutral
0.015152344,0.307388041,0.144667465,-0.054522768,0.188865101,Subject C,neutral
0.015152324,0.114761458,0.089772635,-0.043378586,0.028318345,Subject C,neutral
0.015151653,0.320701977,0.080463029,-0.014878162,0.133137663,Subject C,neutral
0.015150331,0.697951584,0.107567581,0.015553016,0.515348565,Subject C,neutral
0.015148357,0.822456643,0.138782194,-0.004464884,0.836607197,Subject C,neutral
0.015145732,0.610232326,0.145360934,-0.08708945,0.808018148,Subject C,neutral
0.015142452,0.379969983,0.117853434,-0.173883975,0.528473056,Subject C,neutral
0.015138518,0.400514424,0.071827532,-0.19462937,0.335048373,Subject C,neutral
0.015133926,0.550606139,0.039162853,-0.144906677,0.36991138,Subject C,neutral
0.015128676,0.533847301,0.040438048,-0.088718174,0.436511652,Subject C,neutral
0.015122765,0.330234696,0.061211966,-0.081722388,0.323263643,Subject C,neutral
0.015116192,0.24878222,0.065647071,-0.107496995,0.136384592,Subject C,neutral
0.015108954,0.491843193,0.038352306,-0.107400092,0.169809456,Subject C,neutral
0.015101048,0.819347786,0.002284884,-0.066569571,0.475216843,Subject C,neutral
0.015092471,0.796550874,-0.011852143,-0.039412571,0.720037639,Subject C,neutral
0.015083218,0.340925619,-0.003373299,-0.075843575,0.557377329,Subject C,neutral
0.015073284,-0.137087904,0.004110094,-0.149090738,0.055980677,Subject C,neutral
0.015062663,-0.205236283,0.002585404,-0.186475884,-0.360253784,Subject C,neutral
0.015051349,0.087165892,0.018814593,-0.15981712,-0.399866804,Subject C,neutral
0.015039336,0.300369481,0.083488007,-0.112257037,-0.216490116,Subject C,neutral
0.015026617,0.158429073,0.182919681,-0.094023411,-0.17349777,Subject C,neutral
0.015013183,-0.142565271,0.2527907,-0.102078765,-0.384388305,Subject C,neutral
0.014999025,-0.237216879,0.233523149,-0.098286596,-0.61301776,Subject C,neutral
0.014984135,-0.073823724,0.135852209,-0.067998056,-0.620299556,Subject C,neutral
0.014968502,0.058847262,0.041101329,-0.037294223,-0.464830212,Subject C,neutral
0.014952118,-0.032543875,0.024850065,-0.032273715,-0.366670212,Subject C,neutral
0.01493497,-0.162125039,0.082382832,-0.039499755,-0.362385339,Subject C,neutral
0.01491705,-0.035617186,0.138983118,-0.022654688,-0.258708563,Subject C,neutral
0.014898344,0.293171052,0.133126811,0.023766749,0.048583264,Subject C,neutral
0.014878839,0.435819181,0.079072012,0.056350334,0.359510191,Subject C,neutral
0.014858523,0.179698951,0.044344565,0.032205401,0.393945028,Subject C,neutral
0.014837379,-0.190973544,0.075729357,-0.032682342,0.167733747,Subject C,neutral
0.014815392,-0.235008675,0.157183161,-0.074053843,-0.001718946,Subject C,neutral
0.014792545,0.071503692,0.23701682,-0.050808032,0.107772993,Subject C,neutral
0.014768819,0.302258757,0.283179869,0.010940117,0.342155482,Subject C,neutral
0.014744197,0.152135959,0.303199465,0.055089872,0.382746804,Subject C,neutral
0.014718659,-0.144523391,0.316239656,0.062832519,0.176098099,Subject C,neutral
0.014692185,-0.115057519,0.322135594,0.062385293,0.013235666,Subject C,neutral
0.014664755,0.317552444,0.306600812,0.075024707,0.148325862,Subject C,neutral
0.014636349,0.70026708,0.267585166,0.079018784,0.455098244,Subject C,neutral
0.014606946,0.602871857,0.222131091,0.043923609,0.573920873,Subject C,neutral
0.014576527,0.157374252,0.18616722,-0.017615045,0.364117301,Subject C,neutral
0.014545072,-0.103168252,0.157163775,-0.060979537,0.080064775,Subject C,neutral
0.014512561,0.098098532,0.12154542,-0.070718857,0.046298345,Subject C,neutral
0.014478977,0.459979842,0.076323537,-0.082076979,0.250710406,Subject C,neutral
0.014444299,0.513096119,0.040027176,-0.129126671,0.377826045,Subject C,neutral
0.014408509,0.220831395,0.037781014,-0.193822988,0.235880646,Subject C,neutral
0.014371589,-0.003854188,0.068281847,-0.231231998,0.021480822,Subject C,neutral
0.014333519,0.130197852,0.086387488,-0.235764408,0.071955872,Subject C,neutral
0.014294282,0.401297546,0.033902635,-0.250761042,0.41830907,Subject C,neutral
0.014253856,0.385368302,-0.09920637,-0.303188847,0.716609133,Subject C,neutral
0.014212221,0.042071508,-0.250603454,-0.355193107,0.654259464,Subject C,neutral
0.014169356,-0.225152368,-0.336720713,-0.344926321,0.318706696,Subject C,neutral
0.01412524,-0.122502006,-0.329663558,-0.266163503,0.068448742,Subject C,neutral
0.01407985,0.122137079,-0.275972717,-0.18257702,0.088129051,Subject C,neutral
0.014033164,0.062004811,-0.239823385,-0.157208998,0.202460956,Subject C,neutral
0.013985157,-0.347153077,-0.236119778,-0.182915194,0.164480198,Subject C,neutral
0.013935802,-0.648592775,-0.222537547,-0.196449685,0.010139371,Subject C,neutral
0.013885073,-0.460463446,-0.151773349,-0.159863573,0.004413206,Subject C,neutral
0.013832942,0.024566322,-0.02637844,-0.113162692,0.262258827,Subject C,neutral
0.013779382,0.272201942,0.095849657,-0.130784039,0.56016336,Subject C,neutral
0.013724362,0.069696723,0.145167024,-0.225969395,0.599566606,Subject C,neutral
0.013667855,-0.232294949,0.090736452,-0.317583607,0.389372549,Subject C,neutral
0.013609831,-0.190379032,-0.038344807,-0.310016315,0.252739718,Subject C,neutral
0.013550263,0.168875028,-0.17249568,-0.200122764,0.437218074,Subject C,neutral
0.013489121,0.406831308,-0.248674734,-0.0822757,0.814944701,Subject C,neutral
0.013426376,0.252797896,-0.252704401,-0.041779349,1.050110012,Subject C,neutral
0.013362,-0.055264919,-0.220515557,-0.067305644,1.007700033,Subject C,neutral
0.013295962,-0.1078929,-0.196407436,-0.087335496,0.86349766,Subject C,neutral
0.013228232,0.112775265,-0.193576793,-0.070913278,0.789776999,Subject C,neutral
0.013158781,0.200187936,-0.197447685,-0.053832085,0.68489278,Subject C,neutral
0.013087578,-0.122374091,-0.196415141,-0.065382669,0.351285742,Subject C,neutral
0.013014595,-0.599479378,-0.195746881,-0.071856521,-0.127221653,Subject C,neutral
0.012939802,-0.74731442,-0.203531533,-0.02397767,-0.37740175,Subject C,neutral
0.012863171,-0.474308255,-0.215558825,0.056017533,-0.173073715,Subject C,neutral
0.012784676,-0.194921343,-0.218385233,0.074747626,0.246535233,Subject C,neutral
0.01270429,-0.2846416,-0.201540678,-0.02838397,0.423892217,Subject C,neutral
0.01262199,-0.601900987,-0.164142271,-0.197988937,0.204274666,Subject C,neutral
0.012537752,-0.704749533,-0.114795711,-0.31022566,-0.125551725,Subject C,neutral
0.012451555,-0.454976851,-0.068515854,-0.302591755,-0.233056635,Subject C,neutral
0.012363379,-0.19597088,-0.039220792,-0.232285116,-0.136614694,Subject C,neutral
0.012273204,-0.282190981,-0.031018615,-0.195314918,-0.112735754,Subject C,neutral
0.012181013,-0.603805307,-0.040221418,-0.210981467,-0.289761691,Subject C,neutral
0.012086789,-0.73025185,-0.067040118,-0.214697593,-0.483861802,Subject C,neutral
0.011990513,-0.464684349,-0.115285291,-0.158168977,-0.469109551,Subject C,neutral
0.01189217,-0.085805309,-0.174276917,-0.079823929,-0.294780255,Subject C,neutral
0.011791741,0.011970456,-0.214811101,-0.054370096,-0.219380552,Subject C,neutral
0.011689208,-0.199050859,-0.220405293,-0.09059292,-0.349490551,Subject C,neutral
0.011584554,-0.379554758,-0.216338621,-0.112331589,-0.472127421,Subject C,neutral
0.01147776,-0.278571118,-0.24663228,-0.050218471,-0.326006051,Subject C,neutral
0.011368808,-0.047112455,-0.318563438,0.069682287,0.030811955,Subject C,neutral
0.011257679,-0.013727527,-0.386716589,0.15226398,0.255396513,Subject C,neutral
0.011144356,-0.230918014,-0.400658907,0.143576442,0.138497457,Subject C,neutral
0.011028819,-0.397820462,-0.358298698,0.089108914,-0.132396191,Subject C,neutral
0.010911047,-0.261387046,-0.304069719,0.071011469,-0.218328941,Subject C,neutral
0.010791022,0.041988285,-0.281855342,0.107894135,-0.06603064,Subject C,neutral
0.01066872,0.164454116,-0.298449069,0.14380036,0.04026821,Subject C,neutral
0.010544122,0.008156174,-0.328170536,0.130821089,-0.118867304,Subject C,neutral
0.010417203,-0.14944143,-0.340954723,0.086193,-0.381478599,Subject C,neutral
0.010287941,-0.039738603,-0.322516166,0.049844948,-0.406271061,Subject C,neutral
0.010156313,0.216944052,-0.276253275,0.016983818,-0.134717219,Subject C,neutral
0.010022295,0.257494464,-0.215845072,-0.047340917,0.105700683,Subject C,neutral
0.009885864,-0.030626208,-0.15659856,-0.137463458,0.014059835,Subject C,neutral
0.009746997,-0.333632905,-0.107456409,-0.19810342,-0.287774926,Subject C,neutral
0.009605669,-0.315070056,-0.068641223,-0.200293212,-0.407088451,Subject C,neutral
0.009461859,-0.074112957,-0.040406795,-0.187807195,-0.197031919,Subject C,neutral
