timestamps,TP9,AF7,AF8,TP10,Subject,Emotion
-0.011739226,0.084780226,0.233888643,3.061423472,0.062496573,Subject C,neutral
-0.011457354,0.104480813,0.270709526,3.737747201,0.127410645,Subject C,neutral
-0.011173157,-0.091278207,0.306918047,3.076392957,-0.110392866,Subject C,neutral
-0.010886687,-0.051237441,0.324687463,1.504539549,-0.36682646,Subject C,neutral
-0.010597995,0.325419384,0.314369138,0.319143227,-0.341204396,Subject C,neutral
-0.010307132,0.623090725,0.287155079,0.284741739,-0.090902647,Subject C,neutral
-0.010014152,0.445789249,0.265229762,0.843841236,0.06281999,Subject C,neutral
-0.009719106,-0.061765094,0.262950253,0.95723613,-0.041976675,Subject C,neutral
-0.009422047,-0.402297535,0.276940665,0.480760722,-0.217394169,Subject C,neutral
-0.009123032,-0.367330259,0.288844954,0.257432521,-0.205480484,Subject C,neutral
-0.008822113,-0.274769742,0.277222706,0.824419817,-0.039683524,Subject C,neutral
-0.008519346,-0.499745267,0.233297177,1.553046507,-0.002727297,Subject C,neutral
-0.008214787,-0.947162727,0.168729911,1.475895006,-0.241462781,Subject C,neutral
-0.007908491,-1.1767211,0.105989696,0.666551563,-0.553900102,Subject C,neutral
-0.007600511,-0.998372953,0.060260906,0.169497008,-0.635825227,Subject C,neutral
-0.007290904,-0.72725733,0.031714522,0.502875181,-0.471886298,Subject C,neutral
-0.006979724,-0.75637026,0.013176756,0.871257443,-0.360612701,Subject C,neutral
-0.006667025,-1.024549927,0.000942714,0.295503107,-0.529765561,Subject C,neutral
-0.006352864,-1.097331898,-0.00387762,-0.895717633,-0.834378798,Subject C,neutral
-0.006037294,-0.758658113,-0.003242128,-1.372815177,-0.93578952,Subject C,neutral
-0.005720372,-0.322450797,-0.006561796,-0.580989277,-0.73671895,Subject C,neutral
-0.005402151,-0.237015769,-0.020717082,0.414300243,-0.504040818,Subject C,neutral
-0.005082687,-0.501175779,-0.0354132,0.213358066,-0.516776779,Subject C,neutral
-0.004762035,-0.674955324,-0.027795046,-1.07712092,-0.707363805,Subject C,neutral
-0.004440251,-0.478366672,0.011187071,-1.792533866,-0.77441835,Subject C,neutral
-0.004117395,-0.177599854,0.060398881,-0.667397717,-0.610931657,Subject C,neutral
-0.003793523,-0.230475334,0.087487646,1.46858137,-0.460173729,Subject C,neutral
-0.003468696,-0.650152415,0.083260585,2.422522271,-0.575081611,Subject C,neutral
-0.003142972,-0.938079591,0.069158471,1.136875287,-0.844589524,Subject C,neutral
-0.002816412,-0.704843045,0.067925928,-1.017478994,-0.92041123,Subject C,neutral
-0.002489076,-0.189172186,0.073138712,-1.825306855,-0.694259403,Subject C,neutral
-0.002161027,0.009122931,0.055739743,-0.78566349,-0.464919489,Subject C,neutral
-0.001832325,-0.334178117,0.003107349,0.509525855,-0.540217486,Subject C,neutral
-0.001503033,-0.788576966,-0.053144825,0.518562448,-0.808028588,Subject C,neutral
-0.001173212,-0.801811247,-0.056820545,-0.418278425,-0.872707674,Subject C,neutral
-0.000842926,-0.371772473,0.019318829,-0.789372342,-0.58122981,Subject C,neutral
-0.000512239,-0.016638503,0.140949644,-0.016197666,-0.226725132,Subject C,neutral
-0.000181213,-0.105467677,0.239309458,0.841888922,-0.158343145,Subject C,neutral
0.000150085,-0.421037749,0.273295708,0.565382828,-0.333197942,Subject C,neutral
0.000481594,-0.502704727,0.260492643,-0.607880198,-0.416368674,Subject C,neutral
0.000813247,-0.286998266,0.244854808,-1.304252626,-0.2773402,Subject C,neutral
0.001144981,-0.1760994,0.241500336,-0.748453484,-0.17709228,Subject C,neutral
0.001476729,-0.438005804,0.223523173,0.383887202,-0.361964127,Subject C,neutral
0.001808428,-0.763275513,0.163802979,0.964229364,-0.630886403,Subject C,neutral
0.002140011,-0.62458111,0.080541095,0.729991247,-0.53520907,Subject C,neutral
0.002471412,3.52e-05,0.031886962,0.194520845,-0.007524521,Subject C,neutral
0.002802567,0.520029088,0.063563462,-0.360749847,0.437792,Subject C,neutral
0.003133407,0.435177365,0.167466765,-1.076164993,0.274654856,Subject C,neutral
0.003463868,-0.050679165,0.295302048,-1.690190218,-0.385770192,Subject C,neutral
0.003793881,-0.308863929,0.40515865,-1.313339103,-0.902752394,Subject C,neutral
0.004123378,-0.083434181,0.485805358,0.423747086,-0.851354381,Subject C,neutral
0.004452293,0.235135153,0.542200512,2.357984711,-0.490546563,Subject C,neutral
0.004780558,0.177495338,0.573242974,2.673898005,-0.402079522,Subject C,neutral
0.005108104,-0.184223148,0.568514504,0.981511861,-0.768522569,Subject C,neutral
0.005434861,-0.372097469,0.520154803,-1.002905202,-1.171303063,Subject C,neutral
0.00576076,-0.170382698,0.434833084,-1.292705182,-1.128417934,Subject C,neutral
0.006085729,0.086843463,0.336282253,0.119560159,-0.69050254,Subject C,neutral
0.006409696,-0.018146168,0.254441532,1.398212499,-0.369232025,Subject C,neutral
0.006732591,-0.409844718,0.206951379,1.220495753,-0.513448173,Subject C,neutral
0.007054341,-0.6110632,0.189502093,0.373398059,-0.915036868,Subject C,neutral
0.007374875,-0.375302417,0.184607133,0.617095171,-1.104395627,Subject C,neutral
0.007694125,-0.011406976,0.177533529,2.30422053,-0.927708044,Subject C,neutral
0.00801202,0.027878021,0.162434217,3.765996517,-0.683753105,Subject C,neutral
0.008328494,-0.259313021,0.138175562,3.259535543,-0.693650544,Subject C,neutral
0.008643477,-0.434851801,0.106066281,1.103915629,-0.890709905,Subject C,neutral
0.008956904,-0.217558991,0.074162265,-0.620961261,-0.947076603,Subject C,neutral
0.009268709,0.13258043,0.058507115,-0.456632852,-0.729741876,Subject C,neutral
0.009578825,0.159904752,0.071471451,0.879827509,-0.4669687,Subject C,neutral
0.009887191,-0.171164219,0.1047067,1.594864392,-0.427487215,Subject C,neutral
0.010193742,-0.418824591,0.128791483,1.050403984,-0.569884957,Subject C,neutral
0.010498417,-0.247941152,0.118535282,0.314220263,-0.628627094,Subject C,neutral
0.010801156,0.125604519,0.07996189,0.557825292,-0.490643987,Subject C,neutral
0.011101894,0.225087413,0.045322035,1.570351809,-0.333275383,Subject C,neutral
0.011400572,-0.051723005,0.037753464,2.20756256,-0.34549567,Subject C,neutral
0.011697131,-0.299487806,0.046989587,1.865513389,-0.439430544,Subject C,neutral
0.011991513,-0.149586205,0.046339442,0.918943044,-0.369888731,Subject C,neutral
0.012283655,0.232986801,0.02868792,-0.165894493,-0.100323301,Subject C,neutral
0.012573491,0.363843103,0.015247245,-1.441604536,0.11022168,Subject C,neutral
0.012860954,0.09015963,0.027648046,-2.889934352,0.05092933,Subject C,neutral
0.013145991,-0.182228938,0.059250751,-3.73155651,-0.125218842,Subject C,neutral
0.013428551,-0.006689849,0.078126757,-2.98296558,-0.069271387,Subject C,neutral
0.013708572,0.498305169,0.056965375,-0.745832336,0.299424232,Subject C,neutral
0.013985966,0.753586249,0.000898572,1.504309963,0.640481589,Subject C,neutral
0.014260652,0.426590937,-0.052448269,2.230691255,0.577183565,Subject C,neutral
0.014532598,-0.1566798,-0.064607597,1.371130352,0.149366902,Subject C,neutral
0.014801805,-0.423749745,-0.034388978,0.329409156,-0.231994055,Subject C,neutral
0.015068223,-0.255151056,-0.003181047,0.344737745,-0.26849633,Subject C,neutral
0.015331684,-0.071917916,-0.014274437,1.090699132,-0.094677352,Subject C,neutral
0.015592011,-0.230022199,-0.06515286,1.206808739,-0.056790054,Subject C,neutral
0.01584922,-0.547205564,-0.108917286,0.128289609,-0.257975546,Subject C,neutral
0.016103534,-0.581853109,-0.107344592,-1.137313644,-0.454317402,Subject C,neutral
0.016355017,-0.261199057,-0.072230638,-1.309889715,-0.4141437,Subject C,neutral
0.016603206,0.005392901,-0.044957715,-0.475637915,-0.24765664,Subject C,neutral
0.016847427,-0.117235307,-0.043920121,0.094319052,-0.262134111,Subject C,neutral
0.017087762,-0.425159667,-0.046498243,-0.359294954,-0.534638428,Subject C,neutral
0.017325403,-0.443126787,-0.021278714,-1.105761297,-0.774969986,Subject C,neutral
0.017561218,-0.069477254,0.035231479,-0.865631274,-0.67236886,Subject C,neutral
0.017793746,0.276104214,0.098453031,0.53661246,-0.286300847,Subject C,neutral
0.018019906,0.208448491,0.144519768,1.821569939,0.017098294,Subject C,neutral
0.018239324,-0.106103554,0.173117481,1.654111947,0.001801524,Subject C,neutral
0.018457161,-0.164156065,0.203364505,0.168206435,-0.176025139,Subject C,neutral
0.018678911,0.207728735,0.249900277,-1.207812183,-0.196935398,Subject C,neutral
0.018900232,0.608747275,0.303086931,-1.420318578,0.007826071,Subject C,neutral
0.019106568,0.565256678,0.333556727,-0.877538212,0.183371183,Subject C,neutral
0.019291485,0.132364573,0.318375027,-0.626971856,0.094162289,Subject C,neutral
0.019476666,-0.179807585,0.262637646,-0.80180969,-0.174141259,Subject C,neutral
0.019702448,-0.056768416,0.19492841,-0.464328335,-0.340384777,Subject C,neutral
0.019986859,0.238553087,0.145165174,0.933239693,-0.299270938,Subject C,neutral
0.020297055,0.243509618,0.129539126,2.477200606,-0.238968059,Subject C,neutral
0.020573082,-0.074416779,0.150195687,2.679313691,-0.353162879,Subject C,neutral
0.020782096,-0.269838555,0.197358374,1.308440826,-0.547311345,Subject C,neutral
0.020942127,-0.013719637,0.248142679,-0.186507882,-0.55559108,Subject C,neutral
0.021093513,0.456137493,0.272319025,-0.277666562,-0.327438155,Subject C,neutral
0.021257939,0.62026679,0.250690498,0.981141353,-0.150923294,Subject C,neutral
0.021428971,0.326974379,0.192674344,2.225419042,-0.307151574,Subject C,neutral
0.021592056,-0.033647854,0.134447368,2.477203728,-0.68920129,Subject C,neutral
0.021742853,-0.045646172,0.115580666,2.079954803,-0.903844298,Subject C,neutral
0.021886859,0.20831601,0.15216284,1.882594775,-0.750797954,Subject C,neutral
0.022029232,0.295074092,0.22760465,1.99357441,-0.462338679,Subject C,neutral
0.022169598,0.038402144,0.30582131,1.821366142,-0.39127722,Subject C,neutral
0.022304879,-0.236105804,0.352684882,1.221002353,-0.56271039,Subject C,neutral
0.022433614,-0.149398365,0.349997276,0.965987692,-0.674116593,Subject C,neutral
0.022556671,0.199676531,0.299320512,1.666276172,-0.516409001,Subject C,neutral
0.022675248,0.352574085,0.220620129,2.556572858,-0.234201443,Subject C,neutral
0.022789432,0.113308754,0.145602505,2.088264553,-0.090536889,Subject C,neutral
0.022898554,-0.172761423,0.102911516,-0.066263438,-0.091744404,Subject C,neutral
0.02300216,-0.086379607,0.101921142,-2.179727312,-0.009108173,Subject C,neutral
0.023100324,0.272057534,0.13069369,-2.202410248,0.237927858,Subject C,neutral
0.02319328,0.389163446,0.17423032,-0.125674007,0.39770058,Subject C,neutral
0.023281055,0.030530376,0.235237735,1.965061168,0.194103585,Subject C,neutral
0.023363486,-0.425782652,0.329426327,2.236916345,-0.285781713,Subject C,neutral
0.023440421,-0.501548195,0.454052856,0.967400768,-0.681522743,Subject C,neutral
0.023511825,-0.300722288,0.568313285,-0.194663523,-0.831773464,Subject C,neutral
0.023577718,-0.418002942,0.619068766,-0.350009418,-0.985100007,Subject C,neutral
0.023638089,-1.160968704,0.588417466,-0.148056129,-1.449285311,Subject C,neutral
0.02369288,-2.108494895,0.507523237,-0.548764101,-2.151531392,Subject C,neutral
0.023742033,-2.594029546,0.424302208,-1.447607368,-2.705428548,Subject C,neutral
0.023785513,-2.496552925,0.367496345,-1.981655603,-2.895341094,Subject C,neutral
0.023823304,-2.346823022,0.338961999,-1.895961068,-2.939276322,Subject C,neutral
0.023855385,-2.649009475,0.322000875,-1.909210289,-3.189886656,Subject C,neutral
0.02388173,-3.281411181,0.288917209,-2.520413909,-3.660493356,Subject C,neutral
0.023902311,-3.689723111,0.213936239,-3.020553042,-3.988126924,Subject C,neutral
0.023917107,-3.585152475,0.094120837,-2.272999367,-3.892741286,Subject C,neutral
0.023926101,-3.267310829,-0.040631415,-0.319625224,-3.551364345,Subject C,neutral
0.023929284,-3.201609222,-0.143332539,1.389896554,-3.39662388,Subject C,neutral
0.023926643,-3.427493996,-0.179982209,1.558942523,-3.585416911,Subject C,neutral
0.023918172,-3.564901327,-0.150314736,0.44019702,-3.821993508,Subject C,neutral
0.023903865,-3.381487694,-0.08635418,-0.642199745,-3.762629676,Subject C,neutral
0.023883722,-3.133967595,-0.032783335,-0.910907254,-3.464215917,Subject C,neutral
0.023857746,-3.208467037,-0.023088021,-0.798177983,-3.288322499,Subject C,neutral
0.023825943,-3.550493255,-0.064335384,-0.980455826,-3.402607255,Subject C,neutral
0.023788324,-3.681985974,-0.135414758,-1.301153064,-3.551600825,Subject C,neutral
0.023744899,-3.317524726,-0.199493627,-1.107009258,-3.400677134,Subject C,neutral
0.023695684,-2.766262293,-0.228948087,-0.427886588,-2.991196695,Subject C,neutral
0.023640696,-2.559267545,-0.227260419,-0.180461957,-2.693643085,Subject C,neutral
0.023579955,-2.7616027,-0.222883106,-0.939551933,-2.709291956,Subject C,neutral
0.023513487,-2.872891425,-0.235713609,-1.926655823,-2.782107265,Subject C,neutral
0.023441316,-2.471343877,-0.254893704,-1.765069879,-2.523874802,Subject C,neutral
0.023363472,-1.769908678,-0.256947099,-0.250911195,-1.941982469,Subject C,neutral
0.023279987,-1.348583343,-0.240604518,1.122887359,-1.465041281,Subject C,neutral
0.023190895,-1.409323622,-0.232552627,0.776074762,-1.404288656,Subject C,neutral
0.023096234,-1.530330169,-0.256227048,-1.045592531,-1.537159929,Subject C,neutral
0.022996043,-1.228494678,-0.301067399,-2.464941835,-1.360221279,Subject C,neutral
0.022890367,-0.57622132,-0.328912718,-2.138720686,-0.705214217,Subject C,neutral
0.022779253,-0.073674065,-0.312859604,-0.737462208,0.048344452,Subject C,neutral
0.02266275,0.023545799,-0.267508356,0.037578173,0.418564543,Subject C,neutral
0.02254091,0.019783065,-0.236497117,-0.453446646,0.367943229,Subject C,neutral
0.022413789,0.338355157,-0.247592822,-1.18524228,0.300402594,Subject C,neutral
0.022281445,0.935306948,-0.28103423,-0.905978482,0.556333028,Subject C,neutral
0.022143939,1.354314054,-0.285899246,0.286576282,1.04702364,Subject C,neutral
0.022001335,1.338878057,-0.232220543,1.078987504,1.443866347,Subject C,neutral
0.0218537,1.178594308,-0.148689898,0.494581938,1.624047094,Subject C,neutral
0.021701104,1.331689184,-0.104902037,-1.009580412,1.787361147,Subject C,neutral
0.021543619,1.82675495,-0.148946918,-2.122102875,2.129713955,Subject C,neutral
0.021381319,2.227641376,-0.258231106,-2.148587612,2.543031068,Subject C,neutral
0.021214281,2.199674647,-0.353696066,-1.590361509,2.749906538,Subject C,neutral
0.021042584,1.937106639,-0.366549331,-1.239299097,2.683829718,Subject C,neutral
0.02086631,1.903134947,-0.293293777,-1.101696713,2.595678301,Subject C,neutral
0.020685542,2.226119063,-0.188744596,-0.606297008,2.734621899,Subject C,neutral
0.020500364,2.534349126,-0.113742789,0.297181559,3.023065302,Subject C,neutral
0.020310862,2.440551258,-0.095357775,0.831219613,3.160752512,Subject C,neutral
0.020117121,2.046367198,-0.126765559,0.392787142,3.024786048,Subject C,neutral
0.019919229,1.813603028,-0.18309454,-0.591486001,2.831634872,Subject C,neutral
0.019717275,1.973949787,-0.230348868,-1.241020412,2.839549988,Subject C,neutral
0.019511348,2.246359074,-0.238356303,-1.391475695,2.990456007,Subject C,neutral
0.019301539,2.220571459,-0.205131482,-1.636921381,2.979922779,Subject C,neutral
0.019087938,1.889228458,-0.164687018,-2.208153701,2.665672323,Subject C,neutral
0.018870637,1.626338663,-0.155020733,-2.381849271,2.262336613,Subject C,neutral
0.018649727,1.659727089,-0.175299067,-1.372816331,2.063373645,Subject C,neutral
0.018425299,1.765548105,-0.185215905,0.434569579,2.077002976,Subject C,neutral
0.018197443,1.604118319,-0.154188747,1.61967392,2.068162631,Subject C,neutral
0.01796625,1.231294696,-0.105991914,1.258804225,1.928359109,Subject C,neutral
0.017731811,1.066695707,-0.101989889,0.085945127,1.847065845,Subject C,neutral
0.017494217,1.338335778,-0.17426955,-0.244138251,2.040277532,Subject C,neutral
0.017253558,1.750900938,-0.284730717,0.861063722,2.406820688,Subject C,neutral
0.017009925,1.839498858,-0.3631775,2.036845031,2.596363453,Subject C,neutral
0.016763409,1.550918744,-0.383060815,1.459981378,2.429534992,Subject C,neutral
0.016514102,1.286532362,-0.384638792,-0.851209913,2.127473593,Subject C,neutral
0.016262092,1.357621189,-0.419433506,-2.781294805,2.035597151,Subject C,neutral
0.016007471,1.580325915,-0.485713321,-2.428799933,2.187770685,Subject C,neutral
0.015750328,1.545030775,-0.530387788,-0.266583021,2.28068294,Subject C,neutral
0.015490753,1.196147062,-0.508642116,1.491101078,2.09316249,Subject C,neutral
0.015228835,0.939677164,-0.429112343,1.482135124,1.789844655,Subject C,neutral
0.014964663,1.116394472,-0.339511741,0.518480188,1.701216846,Subject C,neutral
0.014698322,1.533363285,-0.279153033,0.187055388,1.877638816,Subject C,neutral
0.014429902,1.695286205,-0.251719143,0.780475197,2.019835411,Subject C,neutral
0.014159487,1.450879083,-0.234818508,1.200772007,1.881383055,Subject C,neutral
0.013887165,1.189950272,-0.203753201,0.63237785,1.603309543,Subject C,neutral
0.013613022,1.30768613,-0.148903907,-0.464009854,1.52391946,Subject C,neutral
0.013337145,1.64871483,-0.081878503,-1.221104803,1.703067098,Subject C,neutral
0.01305962,1.695162197,-0.027310268,-1.571993758,1.798865789,Subject C,neutral
0.012780536,1.264801639,-0.003433947,-1.986072443,1.494759432,Subject C,neutral
0.012499978,0.783249384,-0.010227798,-2.284723139,0.942517936,Subject C,neutral
0.012218034,0.752707972,-0.037498292,-1.529918134,0.628068966,Subject C,neutral
0.011934791,1.111995966,-0.077908153,0.605991551,0.798208318,Subject C,neutral
0.011650338,1.329972384,-0.12514924,2.891027624,1.169028884,Subject C,neutral
0.011364764,1.106461694,-0.163262852,3.589520037,1.29304822,Subject C,neutral
0.011078157,0.759192465,-0.168174479,2.44392597,1.117746643,Subject C,neutral
0.010790606,0.796593141,-0.126087784,1.039464499,1.019318985,Subject C,neutral
0.0105022,1.250130131,-0.050170108,0.89330971,1.277779771,Subject C,neutral
0.010213026,1.646423813,0.024777992,1.613236883,1.68787054,Subject C,neutral
0.009923175,1.638495731,0.068392186,1.561390188,1.812271359,Subject C,neutral
0.009632734,1.440064847,0.077119647,0.191597407,1.530388187,Subject C,neutral
0.009341792,1.484708648,0.069967772,-1.118294022,1.16296913,Subject C,neutral
0.009050438,1.782429404,0.062670597,-0.936653047,1.042776816,Subject C,neutral
0.00875876,1.858886098,0.049101522,0.210481266,1.126703156,Subject C,neutral
0.008466846,1.384304574,0.009845834,0.515423232,1.137008343,Subject C,neutral
0.008174785,0.664020058,-0.063178795,-0.615404437,0.983789387,Subject C,neutral
0.007882666,0.318871263,-0.152914896,-1.648057913,0.876623279,Subject C,neutral
0.007590578,0.540078623,-0.225348927,-0.882517422,0.997920219,Subject C,neutral
0.007298608,0.872058979,-0.248120055,1.251583552,1.211170488,Subject C,neutral
0.007006847,0.802811763,-0.205865875,2.558731125,1.217126255,Subject C,neutral
0.006715382,0.402422854,-0.109370685,1.674842668,0.95599348,Subject C,neutral
0.0064243,0.198557056,0.004171502,-0.350283974,0.709169817,Subject C,neutral
0.006133688,0.468932154,0.087709142,-1.395015066,0.74443216,Subject C,neutral
0.005843633,0.871314869,0.113383078,-0.74648387,0.963943018,Subject C,neutral
0.00555422,0.878510777,0.089065949,0.341899736,1.026381805,Subject C,neutral
0.005265533,0.447667776,0.044625509,0.446371503,0.791475715,Subject C,neutral
0.004977656,0.067759623,0.004856859,-0.336093754,0.507299983,Subject C,neutral
0.004690671,0.140005586,-0.020696632,-0.774175053,0.497575498,Subject C,neutral
0.004404659,0.494803971,-0.030006099,-0.172129955,0.753384222,Subject C,neutral
0.0041197,0.652090454,-0.026561133,0.832355963,0.947205147,Subject C,neutral
0.003835869,0.461346422,-0.026930489,1.141722529,0.843510271,Subject C,neutral
0.003553244,0.277065445,-0.054401451,0.497078953,0.58531035,Subject C,neutral
0.003271898,0.454054515,-0.113408006,-0.370690833,0.500544839,Subject C,neutral
0.002991904,0.849606602,-0.176958223,-0.759611485,0.677551153,Subject C,neutral
0.002713334,1.001905108,-0.21015614,-0.777712397,0.849995159,Subject C,neutral
0.002436259,0.74344185,-0.204632043,-0.917956576,0.739507486,Subject C,neutral
0.002160748,0.423307292,-0.183586396,-1.130288932,0.414810458,Subject C,neutral
0.001886871,0.438581918,-0.175403238,-0.77230932,0.197227506,Subject C,neutral
0.001614697,0.707124933,-0.187640417,0.409166977,0.230135921,Subject C,neutral
0.001344293,0.793604449,-0.204398936,1.618967859,0.279251154,Subject C,neutral
0.001075728,0.514626002,-0.204026307,1.741995189,0.039743995,Subject C,neutral
0.000809067,0.196785691,-0.179233019,0.685657591,-0.445085062,Subject C,neutral
0.000544375,0.233194761,-0.139883425,-0.419603094,-0.813506549,Subject C,neutral
0.000281718,0.539105319,-0.095024759,-0.5537164,-0.837183963,Subject C,neutral
