timestamps,TP9,AF7,AF8,TP10,Subject,Emotion
-0.003735868,1.123090412,0.129787615,-0.079420969,1.433657125,Subject A,neutral
-0.003839405,1.241141685,0.099545982,-0.045386433,1.33065914,Subject A,neutral
-0.003940721,1.150051989,0.107537017,-0.016777984,1.324164274,Subject A,neutral
-0.004042843,0.811349722,0.141813868,-0.016747048,1.386960657,Subject A,neutral
-0.004147181,0.562517045,0.176852261,-0.025276147,1.478816906,Subject A,neutral
-0.004252813,0.70567734,0.192414095,-0.01095785,1.594375582,Subject A,neutral
-0.00435849,1.10952849,0.177555522,0.015505034,1.713911265,Subject A,neutral
-0.004464074,1.350021751,0.129652615,0.008296119,1.759259478,Subject A,neutral
-0.004570183,1.232109454,0.060148174,-0.048446067,1.664721873,Subject A,neutral
-0.00467722,1.028671555,-0.004165077,-0.10704123,1.490775262,Subject A,neutral
-0.004785061,1.116431381,-0.039876633,-0.106609075,1.402222832,Subject A,neutral
-0.004893422,1.469145064,-0.049917658,-0.046686807,1.48870914,Subject A,neutral
-0.005002226,1.670637375,-0.058100774,0.010882492,1.638357624,Subject A,neutral
-0.00511159,1.442852336,-0.0779616,0.01578116,1.650061703,Subject A,neutral
-0.005221618,1.00657331,-0.097040012,-0.013101956,1.474177826,Subject A,neutral
-0.0053323,0.804371501,-0.096595945,-0.015971473,1.282195272,Subject A,neutral
-0.005443574,0.947360375,-0.07672522,0.031221077,1.260553363,Subject A,neutral
-0.005555411,1.100576749,-0.054402026,0.085817897,1.374676423,Subject A,neutral
-0.005667829,0.934890059,-0.044838576,0.088507435,1.399755861,Subject A,neutral
-0.005780852,0.538768726,-0.053916762,0.033307806,1.187406465,Subject A,neutral
-0.00589448,0.269605258,-0.081973284,-0.024345715,0.844284533,Subject A,neutral
-0.006008696,0.28108927,-0.121440365,-0.029756599,0.608750837,Subject A,neutral
-0.006123489,0.365643891,-0.150993906,0.011037255,0.582763705,Subject A,neutral
-0.00623886,0.293605862,-0.145603476,0.042309733,0.644672017,Subject A,neutral
-0.00635481,0.158115677,-0.101026629,0.026707484,0.632102716,Subject A,neutral
-0.00647134,0.242308704,-0.043720054,-0.009981438,0.546944772,Subject A,neutral
-0.006588443,0.588070511,-0.008403028,-0.01012708,0.521980235,Subject A,neutral
-0.006706115,0.871097456,-0.004783997,0.045675581,0.610724852,Subject A,neutral
-0.006824355,0.791351816,-0.009767517,0.114626936,0.695523966,Subject A,neutral
-0.006943163,0.481116513,0.007554057,0.143828253,0.643745256,Subject A,neutral
-0.007062538,0.36981293,0.055090358,0.132657643,0.497907647,Subject A,neutral
-0.00718248,0.646162708,0.109928294,0.124845048,0.432219306,Subject A,neutral
-0.007302987,1.007150974,0.139779573,0.142906402,0.527754433,Subject A,neutral
-0.00742406,1.031629024,0.136173597,0.156296216,0.673102357,Subject A,neutral
-0.0075457,0.707774921,0.127656116,0.126810393,0.723677092,Subject A,neutral
-0.007667907,0.441609984,0.152675994,0.066094722,0.690903563,Subject A,neutral
-0.007790681,0.543237716,0.214119625,0.024931275,0.699812469,Subject A,neutral
-0.00791402,0.850587832,0.267397969,0.030480681,0.792716463,Subject A,neutral
-0.008037925,0.958020661,0.263654714,0.056875973,0.870050312,Subject A,neutral
-0.008162395,0.737714367,0.205077461,0.064859976,0.844969543,Subject A,neutral
-0.008287428,0.480650217,0.148896565,0.053335432,0.774797586,Subject A,neutral
-0.008413023,0.49394128,0.151077224,0.054996868,0.778781438,Subject A,neutral
-0.008539179,0.703245408,0.209706094,0.086515771,0.8718358,Subject A,neutral
-0.008665895,0.786667169,0.269284291,0.122389963,0.955191681,Subject A,neutral
-0.008793167,0.636898798,0.27800999,0.12567694,0.959533234,Subject A,neutral
-0.008920994,0.499742905,0.234266065,0.092217831,0.922346208,Subject A,neutral
-0.009049373,0.593696297,0.178555831,0.051141846,0.903397641,Subject A,neutral
-0.009178299,0.752348721,0.149629609,0.026228252,0.880881925,Subject A,neutral
-0.009307769,0.617087058,0.154394705,0.012337645,0.776839784,Subject A,neutral
-0.009437779,0.145835756,0.175777683,-0.005122333,0.57132699,Subject A,neutral
-0.009568325,-0.256571226,0.197888547,-0.020415648,0.359431706,Subject A,neutral
-0.009699403,-0.197133707,0.213979848,-0.012289945,0.280857803,Subject A,neutral
-0.009831008,0.227583747,0.213204953,0.021803462,0.385949464,Subject A,neutral
-0.009963135,0.541394817,0.176297111,0.051150349,0.570439175,Subject A,neutral
-0.010095777,0.446756916,0.097999873,0.043584716,0.66201335,Subject A,neutral
-0.010228927,0.139632189,0.007463043,0.00753756,0.590579282,Subject A,neutral
-0.010362576,0.017873615,-0.052510195,-0.012461846,0.458285054,Subject A,neutral
-0.010496715,0.180291072,-0.071285786,0.012068406,0.414862353,Subject A,neutral
-0.010631333,0.345334693,-0.078955564,0.056976278,0.477924935,Subject A,neutral
-0.01076642,0.259000073,-0.099133626,0.073180542,0.520737508,Subject A,neutral
-0.010901962,0.03939523,-0.110070945,0.047384734,0.444838026,Subject A,neutral
-0.011037945,0.009461249,-0.072162027,0.021105389,0.314898924,Subject A,neutral
-0.011174354,0.251639628,0.015390504,0.043175498,0.278729153,Subject A,neutral
-0.011311168,0.483842,0.108105638,0.112215147,0.375458445,Subject A,neutral
-0.011448369,0.427223647,0.165774145,0.178256576,0.484161117,Subject A,neutral
-0.011585935,0.180810985,0.189436569,0.200962478,0.481720754,Subject A,neutral
-0.011723841,0.10113499,0.204989092,0.19266085,0.399656392,Subject A,neutral
-0.011862061,0.333347218,0.225105637,0.194373055,0.369715185,Subject A,neutral
-0.012000567,0.606587868,0.236023837,0.219415687,0.434303356,Subject A,neutral
-0.01213933,0.57098691,0.215111121,0.240312597,0.483879303,Subject A,neutral
-0.012278317,0.243710363,0.15478999,0.233850672,0.410951115,Subject A,neutral
-0.012417495,-0.017867878,0.071871292,0.21827769,0.26979862,Subject A,neutral
-0.012556827,0.021538244,-0.003292932,0.228417815,0.214190028,Subject A,neutral
-0.012696277,0.187241645,-0.05052728,0.262131082,0.285403906,Subject A,neutral
-0.012835804,0.155987017,-0.07732974,0.272840583,0.338642469,Subject A,neutral
-0.012975368,-0.090708182,-0.109776293,0.222620256,0.223270968,Subject A,neutral
-0.013114927,-0.235684015,-0.16054643,0.130411539,-0.012364714,Subject A,neutral
-0.013254435,-0.064927382,-0.209278425,0.053684413,-0.170532462,Subject A,neutral
-0.013393848,0.219501141,-0.223653428,0.024487267,-0.157113204,Subject A,neutral
-0.013533119,0.254110637,-0.19993166,0.01925043,-0.108545953,Subject A,neutral
-0.013672202,0.009470344,-0.171923834,-0.000517716,-0.215076806,Subject A,neutral
-0.013811048,-0.150383092,-0.17441364,-0.032391981,-0.459548059,Subject A,neutral
-0.013949609,0.047684044,-0.205558723,-0.038551644,-0.614566913,Subject A,neutral
-0.014087838,0.393968236,-0.233782444,-0.005610919,-0.516842679,Subject A,neutral
-0.014225686,0.437007159,-0.237313783,0.024355932,-0.276335735,Subject A,neutral
-0.014363105,0.063535424,-0.22560604,-0.001404003,-0.150270371,Subject A,neutral
-0.014500045,-0.34005419,-0.21969633,-0.07895753,-0.233088964,Subject A,neutral
-0.014636454,-0.364192059,-0.223061945,-0.142960223,-0.348147208,Subject A,neutral
-0.014772283,-0.079785704,-0.223571473,-0.134192464,-0.27710687,Subject A,neutral
-0.01490748,0.071777839,-0.219560255,-0.062411693,-0.041032932,Subject A,neutral
-0.015041991,-0.150214391,-0.225239547,0.005991206,0.120086045,Subject A,neutral
-0.015175764,-0.484969603,-0.240379637,0.018622869,0.047996196,Subject A,neutral
-0.015308744,-0.511459109,-0.228588231,-0.014677551,-0.128030024,Subject A,neutral
-0.015440876,-0.1857704,-0.147321377,-0.045417788,-0.143128566,Subject A,neutral
-0.015572103,0.111103945,-0.002514203,-0.045982311,0.077401922,Subject A,neutral
-0.015702366,0.067088283,0.141688764,-0.031973802,0.326536654,Subject A,neutral
-0.015831607,-0.170576004,0.217999934,-0.02728967,0.375028009,Subject A,neutral
-0.015959762,-0.213243348,0.216361633,-0.026107269,0.249647573,Subject A,neutral
-0.016086769,0.03937259,0.182376216,-0.004804575,0.1720357,Subject A,neutral
-0.016212563,0.262482248,0.159600053,0.037443503,0.247930961,Subject A,neutral
-0.016337077,0.139527249,0.146684045,0.073097727,0.329413294,Subject A,neutral
-0.016460245,-0.214801258,0.117364914,0.085875218,0.233300478,Subject A,neutral
-0.016582,-0.400908886,0.067581569,0.093970734,0.009193249,Subject A,neutral
-0.016702275,-0.252204425,0.021387699,0.117292978,-0.113048984,Subject A,neutral
-0.016821002,-0.044486068,-0.007462778,0.136123881,-0.021261178,Subject A,neutral
-0.016938115,-0.129598039,-0.035565348,0.107733372,0.141752942,Subject A,neutral
-0.017053547,-0.47405666,-0.081249917,0.025836707,0.176494683,Subject A,neutral
-0.01716723,-0.693528189,-0.132072855,-0.057420745,0.07919843,Subject A,neutral
-0.0172791,-0.527643975,-0.154804518,-0.083241956,0.012022725,Subject A,neutral
-0.017389091,-0.150217648,-0.131379829,-0.052412463,0.053841625,Subject A,neutral
-0.017497139,0.054543585,-0.076760004,-0.022517532,0.086186802,Subject A,neutral
-0.017603183,-0.058106392,-0.026431908,-0.033735281,-0.032970944,Subject A,neutral
-0.017707162,-0.274387079,-0.011452723,-0.053024206,-0.251589665,Subject A,neutral
-0.017809014,-0.337412747,-0.038931792,-0.012857396,-0.35940675,Subject A,neutral
-0.017908683,-0.257639651,-0.087990333,0.096501957,-0.235377439,Subject A,neutral
-0.018006112,-0.228779458,-0.124438539,0.200286691,0.007325191,Subject A,neutral
-0.018101246,-0.306211503,-0.124617702,0.221236831,0.155615127,Subject A,neutral
-0.018194029,-0.316449068,-0.089955871,0.169255703,0.130817792,Subject A,neutral
-0.018284409,-0.130109097,-0.041597237,0.121989232,0.028522043,Subject A,neutral
-0.018372333,0.092250726,-0.002032946,0.123741839,-0.059822056,Subject A,neutral
-0.018457749,0.05671781,0.018698597,0.137896385,-0.176553251,Subject A,neutral
-0.018540609,-0.280209818,0.021248365,0.11068709,-0.398398083,Subject A,neutral
-0.018620865,-0.613352759,0.006615269,0.053051067,-0.664714505,Subject A,neutral
-0.018698468,-0.635164194,-0.027250464,0.029179053,-0.796939718,Subject A,neutral
-0.018773376,-0.398653061,-0.078169775,0.06971445,-0.704342704,Subject A,neutral
-0.018845544,-0.234999431,-0.13342789,0.125392908,-0.510074114,Subject A,neutral
-0.01891493,-0.337059401,-0.174201571,0.12214276,-0.427683362,Subject A,neutral
-0.018981493,-0.544144219,-0.186514426,0.0503615,-0.529479312,Subject A,neutral
-0.019045193,-0.586098193,-0.169089511,-0.021079466,-0.677439427,Subject A,neutral
-0.01910599,-0.446672486,-0.134359621,-0.02474781,-0.692509878,Subject A,neutral
-0.019163848,-0.370984419,-0.101413203,0.027018948,-0.561761006,Subject A,neutral
-0.019218728,-0.520405072,-0.080275741,0.06153918,-0.443362969,Subject A,neutral
-0.019270593,-0.736945448,-0.059604873,0.040189947,-0.469550822,Subject A,neutral
-0.019319407,-0.738731986,-0.018448663,0.008744475,-0.592605321,Subject A,neutral
-0.019365134,-0.505871405,0.042590512,0.037260266,-0.67012079,Subject A,neutral
-0.019407739,-0.341102009,0.089233148,0.125001215,-0.675645793,Subject A,neutral
-0.019447187,-0.489304086,0.08246684,0.192742226,-0.734830939,Subject A,neutral
-0.019483445,-0.800898288,0.017651222,0.172620285,-0.913031215,Subject A,neutral
-0.019516479,-0.908527913,-0.068416641,0.083397129,-1.053738904,Subject A,neutral
-0.019546256,-0.707175937,-0.123087955,0.00436047,-0.94100966,Subject A,neutral
-0.019572742,-0.494600467,-0.110831324,-0.010842789,-0.605336982,Subject A,neutral
-0.019595904,-0.574180976,-0.037194184,0.021952817,-0.347464016,Subject A,neutral
-0.019615711,-0.851783086,0.051018471,0.051498489,-0.412127184,Subject A,neutral
-0.01963213,-0.963727821,0.101522222,0.047892868,-0.718814354,Subject A,neutral
-0.01964513,-0.754492578,0.10242504,0.019743364,-0.978519557,Subject A,neutral
-0.019654683,-0.4670814,0.085900439,-0.009960904,-1.024152418,Subject A,neutral
-0.019660761,-0.41431615,0.083897663,-0.029116468,-0.950981319,Subject A,neutral
-0.019663336,-0.5885259,0.093422868,-0.037786255,-0.948181585,Subject A,neutral
-0.019662383,-0.71320083,0.092263864,-0.036220318,-1.065960911,Subject A,neutral
-0.019657879,-0.624306625,0.074399699,-0.021543796,-1.178888554,Subject A,neutral
-0.019649797,-0.453494773,0.054217203,0.003014294,-1.145899527,Subject A,neutral
-0.019638113,-0.400674663,0.041387481,0.022849666,-0.967793723,Subject A,neutral
-0.019622802,-0.448870193,0.029661909,0.02427414,-0.78309346,Subject A,neutral
-0.019603838,-0.419781509,0.016106028,0.012523869,-0.729494005,Subject A,neutral
-0.019581197,-0.271624508,0.016763472,0.008239162,-0.828651519,Subject A,neutral
-0.01955485,-0.201162904,0.045921254,0.019642073,-1.007388819,Subject A,neutral
-0.019524772,-0.384642574,0.082276855,0.026960161,-1.202125402,Subject A,neutral
-0.019490936,-0.698530433,0.077579899,0.008188994,-1.397960847,Subject A,neutral
-0.019453316,-0.816372879,0.01302807,-0.022732123,-1.562099445,Subject A,neutral
-0.019411886,-0.596520045,-0.065949019,-0.021900547,-1.602084868,Subject A,neutral
-0.019366622,-0.275626398,-0.091825596,0.032523383,-1.446314968,Subject A,neutral
-0.0193175,-0.198421312,-0.049181483,0.108065806,-1.139669065,Subject A,neutral
-0.019264496,-0.399563413,0.01261247,0.151850109,-0.800928423,Subject A,neutral
-0.019207591,-0.559973171,0.043426602,0.150384529,-0.494718714,Subject A,neutral
-0.019146764,-0.39777511,0.048658079,0.139022415,-0.204645426,Subject A,neutral
-0.019081998,-0.008797204,0.06802759,0.149143347,0.060348835,Subject A,neutral
-0.019013279,0.251305952,0.110415965,0.1610687,0.199123145,Subject A,neutral
-0.018940594,0.172119102,0.131619855,0.124856008,0.113741317,Subject A,neutral
-0.018863933,-0.114169415,0.084360685,0.026763384,-0.140826219,Subject A,neutral
-0.01878329,-0.338550961,-0.020673212,-0.081196013,-0.357580286,Subject A,neutral
-0.018698659,-0.410218737,-0.118401794,-0.130777701,-0.363000875,Subject A,neutral
-0.018610038,-0.459886032,-0.154603486,-0.111220272,-0.187258614,Subject A,neutral
-0.018517427,-0.595347741,-0.134289146,-0.079407835,-0.020334052,Subject A,neutral
-0.018420826,-0.70933489,-0.100471798,-0.095029443,-0.006166109,Subject A,neutral
-0.01832024,-0.605891369,-0.082917283,-0.158476763,-0.1141266,Subject A,neutral
-0.018215674,-0.292778729,-0.085059192,-0.22018263,-0.215154492,Subject A,neutral
-0.018107137,-0.043680718,-0.108121172,-0.241507396,-0.239294058,Subject A,neutral
-0.017994637,-0.1062937,-0.157441656,-0.232234095,-0.223116212,Subject A,neutral
-0.017878188,-0.4031987,-0.217149084,-0.22754804,-0.221369999,Subject A,neutral
-0.017757804,-0.617114982,-0.242414081,-0.242281281,-0.222804269,Subject A,neutral
-0.017633502,-0.571051036,-0.199527612,-0.26101084,-0.184040861,Subject A,neutral
-0.017505303,-0.422251713,-0.109999729,-0.270185025,-0.127371267,Subject A,neutral
-0.01737323,-0.422443668,-0.038814747,-0.282219333,-0.147125195,Subject A,neutral
-0.017237309,-0.568283943,-0.035774379,-0.3143641,-0.281743686,Subject A,neutral
-0.01709757,-0.614163093,-0.095899677,-0.351808502,-0.418886672,Subject A,neutral
-0.016954042,-0.430399278,-0.175183004,-0.353856004,-0.405319687,Subject A,neutral
-0.016806761,-0.212020907,-0.230845524,-0.305445515,-0.258465757,Subject A,neutral
-0.016655764,-0.233846159,-0.241495907,-0.246019152,-0.185391302,Subject A,neutral
-0.016501089,-0.470047893,-0.204576751,-0.228959274,-0.335064434,Subject A,neutral
-0.016342779,-0.605242223,-0.13309941,-0.25962817,-0.587275362,Subject A,neutral
-0.016180878,-0.444817879,-0.053450287,-0.294312745,-0.675038241,Subject A,neutral
-0.016015434,-0.173962812,0.008691999,-0.298704423,-0.510530961,Subject A,neutral
-0.015846496,-0.102971952,0.047425172,-0.282208843,-0.303755269,Subject A,neutral
-0.015674116,-0.240968678,0.077993776,-0.2666052,-0.314416401,Subject A,neutral
-0.015498349,-0.286860539,0.11516981,-0.248051049,-0.537842829,Subject A,neutral
-0.015319251,-0.055686885,0.149515822,-0.215121904,-0.708911835,Subject A,neutral
-0.015136881,0.244988683,0.14858541,-0.189780299,-0.618990122,Subject A,neutral
-0.014951302,0.272866309,0.090387455,-0.214003489,-0.360725576,Subject A,neutral
-0.014762575,-0.001609982,-0.000520606,-0.285718445,-0.203085082,Subject A,neutral
-0.014570768,-0.261107741,-0.06089447,-0.336918132,-0.25397566,Subject A,neutral
-0.014375945,-0.264385553,-0.044871914,-0.303743233,-0.335165212,Subject A,neutral
-0.014178176,-0.15543852,0.031431099,-0.20895776,-0.224954465,Subject A,neutral
-0.01397753,-0.246874219,0.110661446,-0.144553387,0.050608552,Subject A,neutral
-0.013774076,-0.575398014,0.153599449,-0.165694838,0.253645072,Subject A,neutral
-0.013567889,-0.827522015,0.164890532,-0.225123848,0.235455538,Subject A,neutral
-0.013359039,-0.734588788,0.166235608,-0.229425162,0.102718492,Subject A,neutral
-0.013147602,-0.420104267,0.167153023,-0.148627989,0.052590137,Subject A,neutral
-0.012933652,-0.252787362,0.168589833,-0.049942601,0.120158848,Subject A,neutral
-0.012717259,-0.395504083,0.17483448,-0.020706368,0.16802066,Subject A,neutral
-0.012498498,-0.617692871,0.185783688,-0.072141303,0.104936213,Subject A,neutral
-0.01227744,-0.598630721,0.188162905,-0.130946737,0.025274253,Subject A,neutral
-0.012054158,-0.334149454,0.171394061,-0.123467761,0.083489153,Subject A,neutral
-0.011828723,-0.135048226,0.149166284,-0.055006692,0.276251226,Subject A,neutral
-0.011601203,-0.221591807,0.150225799,0.003901705,0.429163097,Subject A,neutral
-0.011371665,-0.43005274,0.183769222,0.003217371,0.414500739,Subject A,neutral
-0.011140179,-0.408724628,0.222936669,-0.03211315,0.314413373,Subject A,neutral
-0.010906821,-0.061936641,0.229026064,-0.038817255,0.307803533,Subject A,neutral
-0.010671661,0.315711078,0.19015573,0.009674732,0.425174036,Subject A,neutral
-0.01043476,0.384875991,0.133991408,0.081776623,0.498424589,Subject A,neutral
-0.010196173,0.155447428,0.104149844,0.134464656,0.377346536,Subject A,neutral
-0.009955969,-0.059035741,0.123646479,0.157739989,0.125890195,Subject A,neutral
-0.00971424,-0.053248612,0.176403504,0.163590947,-0.061764197,Subject A,neutral
-0.009471075,0.032738621,0.221620224,0.15158634,-0.103806048,Subject A,neutral
-0.009226511,-0.046143129,0.229511132,0.112057537,-0.103485648,Subject A,neutral
-0.008980555,-0.264890258,0.206664162,0.061131605,-0.175034788,Subject A,neutral
-0.008733262,-0.347198475,0.185225998,0.042592144,-0.284790061,Subject A,neutral
-0.008484803,-0.16071233,0.186040146,0.075521703,-0.318594377,Subject A,neutral
-0.008235359,0.062485379,0.197476739,0.116144078,-0.25320344,Subject A,neutral
-0.007984916,0.005290083,0.195645283,0.100200905,-0.182222014,Subject A,neutral
-0.007733252,-0.314377842,0.178585895,0.024703823,-0.172882813,Subject A,neutral
-0.007480306,-0.546005489,0.166338305,-0.038195684,-0.163143195,Subject A,neutral
-0.007226543,-0.43716452,0.167305183,-0.023130664,-0.042932136,Subject A,neutral
-0.006972641,-0.1320494,0.163290559,0.048546556,0.185730922,Subject A,neutral
-0.006718522,0.041722808,0.137703855,0.090014685,0.379761423,Subject A,neutral
-0.006462996,0.000224966,0.101329341,0.045859565,0.405706571,Subject A,neutral
-0.0062052,-0.023515579,0.071977534,-0.049062715,0.294188881,Subject A,neutral
-0.005946599,0.159002144,0.041606931,-0.11131897,0.209578814,Subject A,neutral
-0.005690275,0.399409613,-0.009157543,-0.09729245,0.267351459,Subject A,neutral
-0.005436607,0.395081451,-0.064962969,-0.039139873,0.416599357,Subject A,neutral
-0.005180435,0.108821039,-0.074404611,0.003409561,0.518667985,Subject A,neutral
-0.004916268,-0.139177018,-0.011685716,0.010656784,0.506944874,Subject A,neutral
-0.004648449,-0.048509088,0.077430466,0.010768329,0.429868473,Subject A,neutral
-0.004391535,0.289823758,0.113609679,0.02945886,0.354399193,Subject A,neutral
-0.004151964,0.505921104,0.064660358,0.054557177,0.284724646,Subject A,neutral
-0.003908054,0.406712883,-0.027466226,0.059301596,0.195313259,Subject A,neutral
-0.003619469,0.190030188,-0.097307123,0.044379218,0.097867727,Subject A,neutral
-0.003268181,0.149639763,-0.115627045,0.037476241,0.027775714,Subject A,neutral
-0.002887033,0.276761567,-0.098434856,0.052649669,-0.021487635,Subject A,neutral
-0.002535976,0.296760543,-0.078935716,0.066856673,-0.09721935,Subject A,neutral
-0.002247852,0.083322962,-0.083055648,0.046946005,-0.200133595,Subject A,neutral
-0.002004627,-0.130863479,-0.118313755,-0.00571699,-0.235240098,Subject A,neutral
-0.001765959,-0.056024556,-0.169577035,-0.050293909,-0.1012105,Subject A,neutral
-0.001510157,0.239422426,-0.209597897,-0.051423354,0.1630316,Subject A,neutral
-0.001243647,0.376054783,-0.226494812,-0.020740195,0.363705053,Subject A,neutral
-0.000980974,0.139674302,-0.238661031,-0.001474858,0.327921535,Subject A,neutral
-0.000726465,-0.228083822,-0.269688134,-0.013900977,0.091217045,Subject A,neutral
