timestamps,TP9,AF7,AF8,TP10,Subject,Emotion
0.047577853,-0.489380657,-0.3425215,-0.127611522,-0.487339644,Subject B,neutral
0.047797838,-0.121958397,-0.329547149,-0.15410672,-0.368686047,Subject B,neutral
0.048008889,0.066602895,-0.299547523,-0.130018141,-0.233800861,Subject B,neutral
0.048210965,-0.178577387,-0.281478388,-0.055309412,-0.224434451,Subject B,neutral
0.048404028,-0.589109508,-0.277267311,0.028521674,-0.309234783,Subject B,neutral
0.048588044,-0.667036413,-0.263959477,0.073125602,-0.307793339,Subject B,neutral
0.048762981,-0.282877401,-0.232563823,0.0615757,-0.114086975,Subject B,neutral
0.048928807,0.165111878,-0.209536245,0.018903608,0.14630068,Subject B,neutral
0.049085493,0.230165248,-0.230638647,-0.008242685,0.232359162,Subject B,neutral
0.049233013,-0.067641212,-0.298209815,0.011185736,0.050817085,Subject B,neutral
0.049371341,-0.322187116,-0.371066756,0.063698975,-0.245471614,Subject B,neutral
0.049500455,-0.277559179,-0.398271872,0.100743418,-0.431851609,Subject B,neutral
0.049620333,-0.114250289,-0.36370286,0.087685802,-0.437315295,Subject B,neutral
0.049730955,-0.146332452,-0.298515239,0.043149361,-0.358387844,Subject B,neutral
0.049832306,-0.37364261,-0.248838695,0.018002815,-0.281003589,Subject B,neutral
0.049924371,-0.489800907,-0.232585712,0.033088776,-0.165970152,Subject B,neutral
0.050007138,-0.308880709,-0.233521274,0.052592697,0.054661856,Subject B,neutral
0.050080596,-0.022980162,-0.235226508,0.030703959,0.323303039,Subject B,neutral
0.050144733,0.048844003,-0.243746274,-0.026147492,0.480473686,Subject B,neutral
0.050199541,-0.122935166,-0.26587988,-0.064291941,0.449647023,Subject B,neutral
0.050245012,-0.253519876,-0.281308939,-0.051666785,0.332057089,Subject B,neutral
0.050281141,-0.141436728,-0.25989224,-0.020630601,0.281251952,Subject B,neutral
0.050307923,0.0519401,-0.203101022,-0.02634034,0.330583927,Subject B,neutral
0.050325356,0.0273318,-0.14686406,-0.073289375,0.397315382,Subject B,neutral
0.050333439,-0.228315602,-0.12208302,-0.105812026,0.427607058,Subject B,neutral
0.050332174,-0.406737158,-0.130029819,-0.075197827,0.463482063,Subject B,neutral
0.050321566,-0.285922846,-0.1575029,0.003075745,0.550865465,Subject B,neutral
0.050301621,-0.021832676,-0.198607677,0.071666956,0.641223488,Subject B,neutral
0.050272346,0.068931512,-0.258303311,0.097129549,0.639522942,Subject B,neutral
0.050233752,-0.069811888,-0.345387943,0.094812096,0.540792873,Subject B,neutral
0.05018585,-0.17691461,-0.456766042,0.094199411,0.467482118,Subject B,neutral
0.050128654,-0.044727314,-0.554982493,0.100768941,0.532564563,Subject B,neutral
0.050062182,0.187303894,-0.575883518,0.097605327,0.676246549,Subject B,neutral
0.049986453,0.210527572,-0.489618257,0.071165958,0.692053146,Subject B,neutral
0.049901486,-0.036613913,-0.351844395,0.026396118,0.452622918,Subject B,neutral
0.049807305,-0.270621048,-0.260661147,-0.019706883,0.078396187,Subject B,neutral
0.049703934,-0.22720117,-0.251086716,-0.055000171,-0.17439241,Subject B,neutral
0.0495914,-0.008812552,-0.257148506,-0.082441351,-0.184334296,Subject B,neutral
0.049469735,0.055195558,-0.197032914,-0.1115933,-0.066750787,Subject B,neutral
0.049338969,-0.150362732,-0.081138696,-0.138565268,-0.006955932,Subject B,neutral
0.049199137,-0.382687211,-0.010425979,-0.140905404,-0.05949616,Subject B,neutral
0.049050273,-0.380449354,-0.062018886,-0.10224391,-0.141794721,Subject B,neutral
0.048892414,-0.210026074,-0.193646922,-0.041288764,-0.177753019,Subject B,neutral
0.0487256,-0.150119699,-0.281589729,-0.002318846,-0.19376635,Subject B,neutral
0.048549869,-0.292821245,-0.253609033,-0.007489059,-0.266793181,Subject B,neutral
0.048365261,-0.417061433,-0.164494177,-0.029995874,-0.401664511,Subject B,neutral
0.048171819,-0.301744271,-0.129182914,-0.030402427,-0.492238755,Subject B,neutral
0.047969584,-0.049237049,-0.198723737,-0.009879761,-0.432388961,Subject B,neutral
0.047758602,0.017234047,-0.321359117,-0.003377743,-0.260319283,Subject B,neutral
0.04753892,-0.239414275,-0.410984705,-0.024094057,-0.146768437,Subject B,neutral
0.047310585,-0.568469717,-0.42308816,-0.045313424,-0.20551434,Subject B,neutral
0.047073649,-0.595506711,-0.366395332,-0.044006194,-0.34236788,Subject B,neutral
0.046828162,-0.249048466,-0.279279716,-0.032847638,-0.34780142,Subject B,neutral
0.046574177,0.155960717,-0.2163976,-0.031361147,-0.14623632,Subject B,neutral
0.046311751,0.279373756,-0.229538589,-0.025945976,0.099784114,Subject B,neutral
0.046040943,0.128096121,-0.319466098,0.01628921,0.170051923,Subject B,neutral
0.045761811,-0.001198405,-0.406872453,0.096706774,0.036253872,Subject B,neutral
0.04547442,0.08840189,-0.388483835,0.166778665,-0.125369012,Subject B,neutral
0.045178834,0.271239586,-0.243119807,0.171070485,-0.162649254,Subject B,neutral
0.044875121,0.30321204,-0.066716447,0.107278881,-0.116884332,Subject B,neutral
0.044563352,0.158378102,0.015200776,0.036337343,-0.124932001,Subject B,neutral
0.044243599,0.05066042,-0.036308418,0.024801621,-0.208854271,Subject B,neutral
0.043915936,0.127731752,-0.151873795,0.075184576,-0.248889937,Subject B,neutral
0.043580439,0.266540254,-0.231179481,0.120707268,-0.167984463,Subject B,neutral
0.043237187,0.254924073,-0.221585162,0.096973179,-0.058393086,Subject B,neutral
0.04288626,0.101576004,-0.133674241,0.015563583,-0.064008567,Subject B,neutral
0.04252774,0.028699601,-0.020113839,-0.045607502,-0.170528011,Subject B,neutral
0.042161711,0.147419577,0.043611339,-0.029139665,-0.186628588,Subject B,neutral
0.04178826,0.27661605,-0.007575003,0.037233333,0.038559012,Subject B,neutral
0.041407473,0.179083043,-0.165256932,0.074835046,0.411445428,Subject B,neutral
0.04101944,-0.097046029,-0.315575948,0.044321063,0.653634417,Subject B,neutral
0.040624252,-0.247444186,-0.318314451,-0.015945022,0.586839214,Subject B,neutral
0.040222002,-0.091588975,-0.151105894,-0.04124768,0.342312747,Subject B,neutral
0.039812784,0.194728108,0.048221548,-0.012491065,0.247027881,Subject B,neutral
0.03939669,0.301665098,0.117802574,0.031688425,0.476994967,Subject B,neutral
0.03897382,0.167280661,0.039927122,0.044774804,0.84372748,Subject B,neutral
0.038544274,0.022991536,-0.059090838,0.022433377,0.967218621,Subject B,neutral
0.038108155,0.066947875,-0.070823752,0.001362504,0.665201899,Subject B,neutral
0.037665565,0.213607988,-0.022166905,0.013091171,0.124776405,Subject B,neutral
0.0372166,0.234123025,-0.012561057,0.04446022,-0.328744691,Subject B,neutral
0.036761363,0.073079735,-0.074171237,0.048922765,-0.562120112,Subject B,neutral
0.036299967,-0.080340887,-0.141049781,-0.003006818,-0.671203502,Subject B,neutral
0.035832533,-0.043584518,-0.1452238,-0.091436786,-0.761599095,Subject B,neutral
0.035359165,0.126095649,-0.093266934,-0.168676945,-0.823549247,Subject B,neutral
0.034879947,0.223297408,-0.034489777,-0.205650837,-0.819891072,Subject B,neutral
0.034394968,0.190110727,0.007327601,-0.208981401,-0.7667765,Subject B,neutral
0.033904365,0.217018412,0.041385325,-0.197776261,-0.677433098,Subject B,neutral
0.033408311,0.492846423,0.072775763,-0.177916635,-0.519138328,Subject B,neutral
0.032906924,0.918581746,0.095558109,-0.144791284,-0.292289965,Subject B,neutral
0.032400211,1.177146637,0.119723025,-0.101878151,-0.090383319,Subject B,neutral
0.031888164,1.102302269,0.171800529,-0.064322224,-0.003337994,Subject B,neutral
0.031370971,0.888515137,0.256276697,-0.043016025,0.018939788,Subject B,neutral
0.030849028,0.86696322,0.336892213,-0.03355286,0.135953796,Subject B,neutral
0.03032257,1.119643929,0.374775589,-0.025938187,0.429681582,Subject B,neutral
0.029791307,1.410759043,0.378782338,-0.020857025,0.78809228,Subject B,neutral
0.029254734,1.507983581,0.40195772,-0.029827144,1.009771129,Subject B,neutral
0.028713103,1.465537984,0.485489662,-0.059165389,1.012691292,Subject B,neutral
0.028167779,1.50443673,0.616513445,-0.099306082,0.90541187,Subject B,neutral
0.027619797,1.67773523,0.745917209,-0.134243499,0.845992382,Subject B,neutral
0.027067865,1.800827712,0.838862868,-0.160500095,0.866195974,Subject B,neutral
0.026509073,1.743496903,0.899181034,-0.19190719,0.870358743,Subject B,neutral
0.025943214,1.653122806,0.947921296,-0.241495105,0.794914593,Subject B,neutral
0.025375618,1.76384245,0.987367263,-0.299897964,0.714908073,Subject B,neutral
0.024811947,2.037820947,0.991552482,-0.338622085,0.756010357,Subject B,neutral
0.02424803,2.14881832,0.934956069,-0.33972986,0.92285567,Subject B,neutral
0.02366948,1.87542719,0.830865801,-0.317908538,1.070338601,Subject B,neutral
0.023070029,1.41517666,0.734110494,-0.305353994,1.072292355,Subject B,neutral
0.022471529,1.199103574,0.69606068,-0.316481191,0.985014697,Subject B,neutral
0.021914483,1.397701511,0.716960231,-0.336423851,0.988390002,Subject B,neutral
0.021417084,1.702712767,0.7491069,-0.34451626,1.160999811,Subject B,neutral
0.020946651,1.658922983,0.745213817,-0.337975344,1.371664773,Subject B,neutral
0.020443394,1.169681672,0.696837772,-0.326690116,1.433370996,Subject B,neutral
0.019874631,0.586077309,0.630278654,-0.313657685,1.322936825,Subject B,neutral
0.019258552,0.282003638,0.578911091,-0.29204104,1.184407129,Subject B,neutral
0.018635655,0.239823993,0.562607684,-0.261019277,1.132087062,Subject B,neutral
0.018027786,0.157388425,0.581748203,-0.234398131,1.132263093,Subject B,neutral
0.01742867,-0.083437261,0.618730005,-0.226362488,1.103258319,Subject B,neutral
0.016823915,-0.233380244,0.643447561,-0.231093226,1.054175727,Subject B,neutral
0.016209339,-0.043942616,0.624791924,-0.223814803,1.053770131,Subject B,neutral
0.015590599,0.323404228,0.548855106,-0.185329695,1.096145218,Subject B,neutral
0.014973019,0.439908002,0.43452827,-0.122601033,1.078511808,Subject B,neutral
0.014356387,0.134685802,0.327418705,-0.062936763,0.923883475,Subject B,neutral
0.013737788,-0.297818402,0.265463611,-0.031062634,0.669989664,Subject B,neutral
0.013115925,-0.466687966,0.243610755,-0.034251614,0.415139424,Subject B,neutral
0.012491832,-0.326843603,0.217704865,-0.063913843,0.221588654,Subject B,neutral
0.011866869,-0.147350377,0.151083311,-0.101323192,0.101870721,Subject B,neutral
0.011241288,-0.112296281,0.058942518,-0.119610169,0.056972713,Subject B,neutral
0.010614583,-0.104120748,0.003467559,-0.092209742,0.073752715,Subject B,neutral
0.009986462,0.075715356,0.040680498,-0.014989967,0.0974128,Subject B,neutral
0.009357163,0.380487861,0.167280615,0.077904386,0.056642283,Subject B,neutral
0.00872708,0.537939254,0.317242254,0.133000797,-0.069219055,Subject B,neutral
0.008096401,0.400391234,0.414105978,0.122729606,-0.220558465,Subject B,neutral
0.007465121,0.171296354,0.433643076,0.069417486,-0.292721318,Subject B,neutral
0.006833247,0.195786815,0.417378913,0.019497717,-0.209289521,Subject B,neutral
0.006200903,0.543990696,0.420694346,-0.00251289,0.00029466,Subject B,neutral
0.005568263,0.895587477,0.448701526,-0.010619268,0.189262362,Subject B,neutral
0.004935469,0.898621136,0.453497807,-0.034045658,0.21164837,Subject B,neutral
0.004302619,0.594435406,0.398796133,-0.083614556,0.076970618,Subject B,neutral
0.003669802,0.378294295,0.314334187,-0.137486829,-0.055331281,Subject B,neutral
0.003037135,0.511982571,0.272683126,-0.15667658,-0.0594162,Subject B,neutral
0.002404747,0.783893616,0.31578768,-0.121449702,0.021928126,Subject B,neutral
0.001772767,0.760262234,0.413579758,-0.056760925,0.058746682,Subject B,neutral
0.001141311,0.328861399,0.491463131,-0.012289148,0.013794138,Subject B,neutral
0.000510496,-0.148745994,0.490851403,-0.009657233,-0.017343003,Subject B,neutral
-0.000119559,-0.268806598,0.407723664,-0.019210464,0.048481435,Subject B,neutral
-0.000748729,-0.049407824,0.284351755,-0.000571757,0.153164011,Subject B,neutral
-0.001376889,0.150992773,0.169978436,0.043289997,0.168328292,Subject B,neutral
-0.002003918,0.111386185,0.088832043,0.072144143,0.074890448,Subject B,neutral
-0.002629694,-0.029965894,0.039628798,0.067447043,-0.003934416,Subject B,neutral
-0.003254096,-0.0587319,0.013490673,0.060353495,0.028364412,Subject B,neutral
-0.003877004,-0.002596061,0.003066653,0.086722782,0.110008738,Subject B,neutral
-0.004498294,-0.015530047,-0.000373289,0.133452338,0.117280538,Subject B,neutral
-0.005117848,-0.045421304,-0.003228127,0.155561965,0.049160364,Subject B,neutral
-0.005735545,0.162695828,0.004549865,0.140582117,0.032311627,Subject B,neutral
-0.006351266,0.67920783,0.04923572,0.127203132,0.13515735,Subject B,neutral
-0.006964892,1.169589389,0.142116308,0.151036644,0.25621688,Subject B,neutral
-0.007576304,1.214240873,0.246791545,0.192921636,0.259141824,Subject B,neutral
-0.008185384,0.806676076,0.29455117,0.200129503,0.178504984,Subject B,neutral
-0.008792013,0.383180876,0.247478126,0.153674851,0.197701128,Subject B,neutral
-0.009396075,0.315140681,0.142788666,0.097853622,0.403483773,Subject B,neutral
-0.009997454,0.48235563,0.061962745,0.095524398,0.641737715,Subject B,neutral
-0.010596032,0.444427589,0.054485497,0.159795532,0.67427017,Subject B,neutral
-0.011191694,-0.008647925,0.100658416,0.239251927,0.443397523,Subject B,neutral
-0.011784324,-0.584527936,0.148044671,0.272261963,0.131626155,Subject B,neutral
-0.012373809,-0.806493619,0.16865403,0.247313163,-0.031358106,Subject B,neutral
-0.012960033,-0.550513536,0.171523261,0.20352838,0.007600094,Subject B,neutral
-0.013542885,-0.184786575,0.171634744,0.180735686,0.091110424,Subject B,neutral
-0.014122249,-0.151835765,0.16609495,0.184294758,0.027180405,Subject B,neutral
-0.014698015,-0.481952183,0.145450547,0.197664683,-0.202342085,Subject B,neutral
-0.015270069,-0.80313161,0.115794973,0.209338892,-0.417356458,Subject B,neutral
-0.015838302,-0.806418046,0.096481917,0.214539287,-0.444233529,Subject B,neutral
-0.016402603,-0.58653256,0.095163508,0.203366921,-0.341718204,Subject B,neutral
-0.016962863,-0.474283266,0.093898831,0.168988541,-0.373207528,Subject B,neutral
-0.017518973,-0.619830838,0.068334858,0.128142108,-0.711359216,Subject B,neutral
-0.018070824,-0.848350002,0.021404748,0.113144947,-1.202684032,Subject B,neutral
-0.01861831,-0.916914662,-0.009179755,0.132613495,-1.49500101,Subject B,neutral
-0.019161324,-0.804799579,0.015396665,0.154302614,-1.404789808,Subject B,neutral
-0.019699763,-0.682865908,0.09371434,0.14274517,-1.109906833,Subject B,neutral
-0.02023352,-0.656798507,0.181856063,0.104998527,-0.968265362,Subject B,neutral
-0.020762492,-0.64730872,0.234738332,0.079121776,-1.168386623,Subject B,neutral
-0.021286576,-0.533058044,0.244880785,0.080133831,-1.542691344,Subject B,neutral
-0.021805669,-0.328065512,0.234461534,0.082920068,-1.707565978,Subject B,neutral
-0.022319668,-0.183865557,0.213788075,0.069410193,-1.441518162,Subject B,neutral
-0.022828474,-0.267591787,0.164766727,0.068512999,-0.97175221,Subject B,neutral
-0.023331987,-0.647554496,0.07800598,0.120358123,-0.815717217,Subject B,neutral
-0.023830108,-1.226012954,-0.004946151,0.207503226,-1.248931758,Subject B,neutral
-0.02432274,-1.757793235,-0.01452133,0.255719621,-1.983810007,Subject B,neutral
-0.024809787,-2.013044566,0.067237114,0.218261812,-2.488280583,Subject B,neutral
-0.025291152,-1.989649952,0.166221448,0.137420978,-2.587556564,Subject B,neutral
-0.025766742,-1.944612868,0.181544799,0.098819419,-2.614423231,Subject B,neutral
-0.026236462,-2.171791291,0.093670097,0.134380968,-2.958840406,Subject B,neutral
-0.026700221,-2.733955109,-0.01262726,0.195987284,-3.613402605,Subject B,neutral
-0.027157928,-3.396358458,-0.040740795,0.224167224,-4.233939044,Subject B,neutral
-0.027609493,-3.804909647,0.019560218,0.214475377,-4.543295441,Subject B,neutral
-0.028054827,-3.762024643,0.096923467,0.202610655,-4.556261679,Subject B,neutral
-0.028493843,-3.394620618,0.12359014,0.206636637,-4.443512242,Subject B,neutral
-0.028926453,-3.071288256,0.094036985,0.211351873,-4.320349851,Subject B,neutral
-0.029352572,-3.108693828,0.045204042,0.206203057,-4.238589443,Subject B,neutral
-0.029772111,-3.510436002,0.007835439,0.21285679,-4.285996145,Subject B,neutral
-0.030184985,-3.988598289,-0.004902671,0.260763596,-4.543717997,Subject B,neutral
-0.030591108,-4.253920629,0.021423034,0.343291569,-4.924868496,Subject B,neutral
-0.030990394,-4.269388431,0.096609537,0.411498994,-5.164274691,Subject B,neutral
-0.031382759,-4.204108299,0.191813057,0.415860159,-5.058724847,Subject B,neutral
-0.031768118,-4.198429692,0.240915373,0.352512459,-4.71396978,Subject B,neutral
-0.032146387,-4.269773329,0.201409622,0.267161607,-4.503286548,Subject B,neutral
-0.032517483,-4.428492909,0.103184094,0.212732407,-4.738092257,Subject B,neutral
-0.032881326,-4.734340904,0.017694794,0.202923243,-5.359586624,Subject B,neutral
-0.033237835,-5.147635666,-0.013928343,0.209138971,-5.960727484,Subject B,neutral
-0.033586932,-5.416365718,-0.00720103,0.201461736,-6.130968004,Subject B,neutral
-0.033928541,-5.262155709,0.000752092,0.182338972,-5.800092807,Subject B,neutral
-0.034262585,-4.71267088,-0.009259236,0.17181217,-5.265732981,Subject B,neutral
-0.034588993,-4.158385979,-0.033505828,0.168572371,-4.90017247,Subject B,neutral
-0.034907692,-3.99031863,-0.0596743,0.143712393,-4.829355054,Subject B,neutral
-0.035218614,-4.189801548,-0.076280621,0.077559831,-4.882025211,Subject B,neutral
-0.035521691,-4.350294856,-0.077600431,-0.009499527,-4.822527731,Subject B,neutral
-0.035816858,-4.136517429,-0.069101155,-0.072885447,-4.600209862,Subject B,neutral
-0.036104052,-3.66775741,-0.065058155,-0.08711756,-4.369490817,Subject B,neutral
-0.036383211,-3.377797924,-0.074982544,-0.066658638,-4.302878704,Subject B,neutral
-0.036654276,-3.501287009,-0.092699323,-0.046439078,-4.409226515,Subject B,neutral
-0.03691719,-3.779562418,-0.100674509,-0.049116741,-4.517180971,Subject B,neutral
-0.037171899,-3.741518394,-0.085696971,-0.069334354,-4.415235879,Subject B,neutral
-0.03741835,-3.245973732,-0.05226293,-0.080898451,-4.021721638,Subject B,neutral
-0.037656493,-2.643575058,-0.021342338,-0.060850719,-3.446600383,Subject B,neutral
-0.037886278,-2.348149286,-0.012607615,-0.017070968,-2.894428215,Subject B,neutral
-0.03810766,-2.326751455,-0.02517152,0.010997344,-2.490679188,Subject B,neutral
-0.038320595,-2.147528213,-0.037216848,-0.005303838,-2.186182736,Subject B,neutral
-0.03852504,-1.544358668,-0.025452762,-0.043331546,-1.827700164,Subject B,neutral
-0.038720958,-0.776547829,0.016045188,-0.053911293,-1.319669406,Subject B,neutral
-0.038908309,-0.290219223,0.072169487,-0.029884214,-0.703074095,Subject B,neutral
-0.039087061,-0.107759188,0.113247917,-0.021569061,-0.073378793,Subject B,neutral
-0.039257182,0.221040149,0.106232521,-0.06861363,0.538147695,Subject B,neutral
-0.039418642,0.994334768,0.035747432,-0.140060347,1.150988557,Subject B,neutral
-0.039571416,1.883334079,-0.072294375,-0.165710486,1.722326601,Subject B,neutral
-0.039715478,2.286709741,-0.154769869,-0.11619793,2.136437664,Subject B,neutral
-0.039850809,2.099393009,-0.15675818,-0.033773205,2.358198998,Subject B,neutral
-0.039977389,1.890495796,-0.080070343,0.00898418,2.537451355,Subject B,neutral
-0.040095202,2.226778146,0.017636562,-0.032361982,2.868886045,Subject B,neutral
-0.040204233,2.991870405,0.072002976,-0.145109764,3.348303702,Subject B,neutral
-0.040304472,3.557386483,0.056472617,-0.266674741,3.745046149,Subject B,neutral
-0.040395909,3.557900269,-0.013276915,-0.321932967,3.847633482,Subject B,neutral
-0.040478537,3.273613503,-0.099976969,-0.275503906,3.686500981,Subject B,neutral
-0.04055235,3.186093873,-0.164269857,-0.161490568,3.477078967,Subject B,neutral
-0.040617345,3.352243583,-0.180133786,-0.059123121,3.385101943,Subject B,neutral
-0.04067352,3.417103843,-0.149214412,-0.032480334,3.403424336,Subject B,neutral
-0.040720873,3.183318876,-0.102500175,-0.087446289,3.438117421,Subject B,neutral
-0.040759407,2.916813673,-0.079957424,-0.176226139,3.440113761,Subject B,neutral
-0.040789126,2.968610143,-0.102920018,-0.236303414,3.422436681,Subject B,neutral
-0.040810035,3.253814136,-0.165802493,-0.234442608,3.396462591,Subject B,neutral
-0.040822144,3.327911916,-0.251956787,-0.189560561,3.350649757,Subject B,neutral
-0.040825461,2.974670332,-0.349544522,-0.15467973,3.296596244,Subject B,neutral
-0.040820002,2.511873151,-0.448850322,-0.165616083,3.291647173,Subject B,neutral
-0.040805782,2.39503476,-0.534554932,-0.206002775,3.372564724,Subject B,neutral
-0.040782816,2.635164302,-0.593310749,-0.231946464,3.466793676,Subject B,neutral
-0.040751124,2.790238438,-0.627071612,-0.227557121,3.417333614,Subject B,neutral
-0.040710726,2.540711449,-0.647345144,-0.218394398,3.147975893,Subject B,neutral
-0.040661643,2.109464568,-0.654251601,-0.227541673,2.802219959,Subject B,neutral
