timestamps,TP9,AF7,AF8,TP10,Subject,Emotion
0.048535105,2.43362986,0.343978628,-0.027419993,1.01053441,Subject B,neutral
0.048988267,2.387523241,0.295799746,-0.082051782,1.260871204,Subject B,neutral
0.049431576,2.276555357,0.258453493,-0.126992384,1.470093476,Subject B,neutral
0.049864949,2.168693772,0.249983191,-0.147802136,1.504558596,Subject B,neutral
0.050288303,1.965573012,0.271175732,-0.149602598,1.406186887,Subject B,neutral
0.05070156,1.584924445,0.297247329,-0.14417827,1.279401306,Subject B,neutral
0.05110464,1.182764749,0.300411082,-0.124447601,1.208720563,Subject B,neutral
0.051497469,1.069929914,0.287089675,-0.071900135,1.247897741,Subject B,neutral
0.051879972,1.357708867,0.300529649,0.00469465,1.372942182,Subject B,neutral
0.052252079,1.755663508,0.373043566,0.057776708,1.439336751,Subject B,neutral
0.052613719,1.833355129,0.478707189,0.047660803,1.296767585,Subject B,neutral
0.052964825,1.500759755,0.546314852,-0.005389072,0.976538348,Subject B,neutral
0.053305332,1.119373917,0.52456198,-0.035815533,0.65913028,Subject B,neutral
0.053635178,1.065053564,0.430793385,-0.00528507,0.415793735,Subject B,neutral
0.053954299,1.280513693,0.334297828,0.052097294,0.109454433,Subject B,neutral
0.054262637,1.38999081,0.295551306,0.067841629,-0.358499404,Subject B,neutral
0.054560131,1.203425734,0.321945834,0.017205626,-0.814374515,Subject B,neutral
0.054846725,0.931707898,0.374446986,-0.053598409,-0.967529783,Subject B,neutral
0.055122361,0.85343434,0.406346644,-0.081351712,-0.765010912,Subject B,neutral
0.055386986,0.922898011,0.39302953,-0.054972351,-0.468595918,Subject B,neutral
0.055640546,0.867573163,0.336437113,-0.018441148,-0.366677072,Subject B,neutral
0.055882989,0.6204647,0.257898571,-0.009940844,-0.492559769,Subject B,neutral
0.056114268,0.448267178,0.188795757,-0.017246978,-0.646150262,Subject B,neutral
0.056334336,0.571544764,0.153006711,-0.002409369,-0.61842452,Subject B,neutral
0.056543149,0.815687405,0.147462558,0.044164387,-0.356275592,Subject B,neutral
0.056740668,0.79806056,0.145640225,0.093613544,0.025017837,Subject B,neutral
0.056926857,0.406232703,0.128529039,0.119947271,0.318063797,Subject B,neutral
0.05710168,-0.060844756,0.108425619,0.132018481,0.3446411,Subject B,neutral
0.057265106,-0.249787041,0.113477666,0.15620359,0.087727396,Subject B,neutral
0.057417106,-0.144704507,0.150114936,0.200301086,-0.279044322,Subject B,neutral
0.057557652,-0.031012337,0.192093586,0.248996672,-0.536837658,Subject B,neutral
0.057686718,-0.115321893,0.212552871,0.291721756,-0.604759923,Subject B,neutral
0.057804282,-0.287271468,0.217724026,0.338964132,-0.555350779,Subject B,neutral
0.057910322,-0.304899933,0.236068604,0.401920658,-0.483744242,Subject B,neutral
0.058004821,-0.144546363,0.275761768,0.464389269,-0.437989455,Subject B,neutral
0.058087764,-0.047765959,0.306770694,0.490457116,-0.463384434,Subject B,neutral
0.058159139,-0.194952849,0.29010738,0.46398479,-0.59157799,Subject B,neutral
0.058218941,-0.447480426,0.216038679,0.409469569,-0.728376842,Subject B,neutral
0.058267163,-0.526953815,0.111224106,0.364863614,-0.660960845,Subject B,neutral
0.058303804,-0.390270175,0.020546942,0.339879434,-0.290423905,Subject B,neutral
0.058328866,-0.267130674,-0.01499585,0.313435395,0.191241089,Subject B,neutral
0.058342351,-0.307148097,0.0182174,0.273152988,0.469092437,Subject B,neutral
0.058344265,-0.347386263,0.089223673,0.243950138,0.444627073,Subject B,neutral
0.058334619,-0.140088753,0.137782924,0.264411397,0.31376613,Subject B,neutral
0.058313421,0.262074479,0.121886179,0.335637121,0.292338587,Subject B,neutral
0.058280685,0.489816446,0.050508545,0.405758177,0.360873335,Subject B,neutral
0.058236426,0.271303823,-0.033849252,0.415333792,0.340444512,Subject B,neutral
0.058180661,-0.215493923,-0.097455745,0.357245879,0.143518732,Subject B,neutral
0.058113414,-0.50327543,-0.132176746,0.282859431,-0.147869101,Subject B,neutral
0.058034708,-0.34862074,-0.138320242,0.244320749,-0.414344225,Subject B,neutral
0.057944573,0.01021257,-0.112220674,0.239424207,-0.598748728,Subject B,neutral
0.057843043,0.156415366,-0.064301103,0.225484477,-0.670815097,Subject B,neutral
0.057730155,-0.034258545,-0.037764121,0.181511455,-0.597415148,Subject B,neutral
0.057605949,-0.335217529,-0.082287788,0.134413389,-0.406131184,Subject B,neutral
0.05747047,-0.535267531,-0.195320515,0.116657902,-0.234638785,Subject B,neutral
0.057323766,-0.695908694,-0.301913686,0.119681213,-0.257363806,Subject B,neutral
0.057165888,-0.972521973,-0.313711968,0.109792747,-0.543731014,Subject B,neutral
0.056996888,-1.291477281,-0.21258972,0.08007123,-0.978066565,Subject B,neutral
0.056816825,-1.348804377,-0.065214749,0.061131529,-1.308797388,Subject B,neutral
0.056625758,-0.96131117,0.045258326,0.076916576,-1.316182733,Subject B,neutral
0.056423752,-0.362849606,0.082430497,0.112588708,-1.009204909,Subject B,neutral
0.056210872,-0.075538729,0.046562346,0.142046734,-0.66606926,Subject B,neutral
0.055987189,-0.418501548,-0.062295878,0.1726327,-0.59206574,Subject B,neutral
0.055752777,-1.13570263,-0.230177555,0.236452788,-0.781959747,Subject B,neutral
0.055507714,-1.591290291,-0.390953769,0.335631918,-0.888126807,Subject B,neutral
0.05525208,-1.402385361,-0.453386844,0.421837058,-0.60576054,Subject B,neutral
0.054985961,-0.822572722,-0.383996416,0.447550505,-0.058570713,Subject B,neutral
0.054709445,-0.412738814,-0.235270819,0.423778344,0.292594666,Subject B,neutral
0.054422624,-0.408842329,-0.084668671,0.406207304,0.141863615,Subject B,neutral
0.054125593,-0.586824197,0.020373458,0.428741244,-0.334489033,Subject B,neutral
0.05381845,-0.714421216,0.052798215,0.468463391,-0.686737504,Subject B,neutral
0.053501295,-0.855565647,-0.002975632,0.476296765,-0.673410344,Subject B,neutral
0.053174234,-1.099066696,-0.116519416,0.429432584,-0.455567347,Subject B,neutral
0.052837373,-1.238292222,-0.209504842,0.353073535,-0.318523727,Subject B,neutral
0.052490822,-1.00783739,-0.233717677,0.298957794,-0.307134417,Subject B,neutral
0.052134695,-0.554134654,-0.229298507,0.300280475,-0.233089213,Subject B,neutral
0.05176911,-0.365271041,-0.265155958,0.340390292,-0.00681666,Subject B,neutral
0.051394189,-0.652929555,-0.33586623,0.368864923,0.182688097,Subject B,neutral
0.051010051,-1.023316955,-0.360256511,0.353655411,0.098368306,Subject B,neutral
0.050616813,-0.934310799,-0.285069606,0.3116253,-0.214334933,Subject B,neutral
0.050214599,-0.377033475,-0.155738892,0.281527111,-0.447960825,Subject B,neutral
0.049803547,0.098012199,-0.066033252,0.27535956,-0.3889783,Subject B,neutral
0.049383801,0.048557986,-0.05372738,0.270234336,-0.156630399,Subject B,neutral
0.048955493,-0.340380601,-0.067960043,0.246302983,-0.033046394,Subject B,neutral
0.048518736,-0.519227892,-0.037870465,0.214223102,-0.12093152,Subject B,neutral
0.04807365,-0.254714827,0.048253893,0.194702869,-0.259796672,Subject B,neutral
0.047620406,0.133455362,0.143668904,0.185237779,-0.259169825,Subject B,neutral
0.04715921,0.237509459,0.207311354,0.166734487,-0.106360892,Subject B,neutral
0.046690222,0.088825308,0.24400252,0.138022567,0.090172871,Subject B,neutral
0.04621349,0.068541738,0.278738583,0.121233014,0.26831682,Subject B,neutral
0.045729052,0.355773187,0.312527086,0.126941563,0.434516591,Subject B,neutral
0.045237145,0.668090744,0.323542403,0.132007679,0.558118391,Subject B,neutral
0.044738216,0.63811114,0.307876759,0.107220437,0.551621604,Subject B,neutral
0.044232553,0.311567345,0.298179695,0.060784598,0.391616926,Subject B,neutral
0.043719923,0.096275214,0.330779817,0.037568681,0.193896873,Subject B,neutral
0.043199878,0.232864972,0.402858655,0.068257497,0.109187683,Subject B,neutral
0.042672729,0.491242687,0.473049668,0.129039046,0.168408926,Subject B,neutral
0.042139898,0.485869277,0.502097305,0.1653472,0.279783483,Subject B,neutral
0.041602479,0.183063515,0.484773853,0.154431528,0.362741877,Subject B,neutral
0.04105924,-0.066399607,0.443580695,0.128961825,0.427131655,Subject B,neutral
0.040507329,0.001001591,0.403062589,0.131543715,0.514097441,Subject B,neutral
0.0399466,0.216548128,0.376052225,0.160145116,0.614354858,Subject B,neutral
0.039382441,0.215623191,0.365872495,0.175518991,0.679343909,Subject B,neutral
0.038820576,-0.061106917,0.370759315,0.157667497,0.685475366,Subject B,neutral
0.038256889,-0.27321074,0.386732258,0.13404061,0.650529334,Subject B,neutral
0.037677053,-0.130694336,0.411807892,0.142590718,0.593739934,Subject B,neutral
0.037074861,0.206679362,0.445688653,0.179819219,0.511294463,Subject B,neutral
0.036472224,0.328100873,0.481145451,0.202482984,0.396402263,Subject B,neutral
0.035909705,0.116582505,0.500428124,0.181472922,0.256393561,Subject B,neutral
0.03540556,-0.097545854,0.488857904,0.13955293,0.097063172,Subject B,neutral
0.034927172,0.002425595,0.452043109,0.124698728,-0.083679369,Subject B,neutral
0.034414815,0.264289693,0.413623327,0.151704625,-0.26433853,Subject B,neutral
0.033835874,0.250021231,0.394844373,0.185016558,-0.384207988,Subject B,neutral
0.033208605,-0.170503315,0.398545889,0.183698412,-0.390569032,Subject B,neutral
0.032573575,-0.610232311,0.41087869,0.150323644,-0.295596932,Subject B,neutral
0.031952699,-0.633372836,0.415200572,0.12146688,-0.168329551,Subject B,neutral
0.031339771,-0.299374946,0.406396649,0.114336947,-0.079045184,Subject B,neutral
0.030720467,-0.079776564,0.39488544,0.102202452,-0.060244552,Subject B,neutral
0.030090676,-0.25646275,0.39482455,0.054460529,-0.097578983,Subject B,neutral
0.029456122,-0.570539069,0.406150169,-0.009465142,-0.137552443,Subject B,neutral
0.028822195,-0.561918753,0.411490073,-0.028878675,-0.128881839,Subject B,neutral
0.028188749,-0.1608926,0.395123856,0.025720843,-0.091351513,Subject B,neutral
0.027552932,0.21157595,0.362553989,0.103769195,-0.127870125,Subject B,neutral
0.026913512,0.145781606,0.33367004,0.119698216,-0.318605479,Subject B,neutral
0.026271584,-0.283186356,0.314027249,0.047161927,-0.596942983,Subject B,neutral
0.025628567,-0.633812471,0.281173069,-0.05076085,-0.785320759,Subject B,neutral
0.024984772,-0.629438905,0.210059785,-0.092262539,-0.789098582,Subject B,neutral
0.024339753,-0.444894557,0.111811444,-0.05955481,-0.710875871,Subject B,neutral
0.023693274,-0.427882878,0.036279293,0.002164055,-0.718685963,Subject B,neutral
0.023045629,-0.633301629,0.027747659,0.050079044,-0.836622113,Subject B,neutral
0.022397268,-0.757442675,0.080240382,0.080812387,-0.946561063,Subject B,neutral
0.021748435,-0.544736134,0.142272644,0.105982842,-0.983151827,Subject B,neutral
0.021099177,-0.14249897,0.165303984,0.12201007,-1.018777796,Subject B,neutral
0.020449554,0.056420761,0.143179692,0.121695548,-1.115277959,Subject B,neutral
0.019799739,-0.113949222,0.105249116,0.120458037,-1.181879143,Subject B,neutral
0.019149955,-0.414416812,0.079183749,0.14716085,-1.063489014,Subject B,neutral
0.01850039,-0.539227105,0.066289812,0.205017057,-0.744033677,Subject B,neutral
0.017851183,-0.505753057,0.049474225,0.255654018,-0.400999157,Subject B,neutral
0.017202464,-0.569005593,0.017093619,0.253016944,-0.244663149,Subject B,neutral
0.016554387,-0.798465803,-0.025040507,0.19171807,-0.311591055,Subject B,neutral
0.015907116,-0.932034143,-0.062325725,0.116003364,-0.420254179,Subject B,neutral
0.015260809,-0.738356201,-0.086874225,0.079216385,-0.35317098,Subject B,neutral
0.014615609,-0.394428751,-0.103240158,0.09650777,-0.110638269,Subject B,neutral
0.013971657,-0.330469022,-0.12187324,0.13850966,0.039329381,Subject B,neutral
0.013329094,-0.704105664,-0.14958387,0.167530987,-0.17257141,Subject B,neutral
0.01268806,-1.182446853,-0.186213992,0.172683024,-0.679657646,Subject B,neutral
0.012048697,-1.328416919,-0.227973012,0.16780336,-1.069954621,Subject B,neutral
0.011411141,-1.106017012,-0.268822575,0.163759225,-0.995023858,Subject B,neutral
0.010775523,-0.870990733,-0.295621674,0.152869792,-0.592461982,Subject B,neutral
0.010141976,-0.889317612,-0.29095165,0.120668553,-0.407270956,Subject B,neutral
0.009510631,-1.022268057,-0.256927222,0.066926244,-0.797733336,Subject B,neutral
0.008881615,-0.956993908,-0.234441426,0.01252839,-1.458015184,Subject B,neutral
0.008255054,-0.637140377,-0.271040744,-0.014872812,-1.695186631,Subject B,neutral
0.007631071,-0.336115896,-0.35179878,-0.005465055,-1.255153176,Subject B,neutral
0.007009787,-0.330597277,-0.386294653,0.020751458,-0.705479297,Subject B,neutral
0.006391321,-0.622348771,-0.299737515,0.030891019,-0.797773136,Subject B,neutral
0.005775787,-1.012289475,-0.130811509,0.010535486,-1.548296546,Subject B,neutral
0.0051633,-1.344274754,-0.003700822,-0.025980432,-2.241619442,Subject B,neutral
0.004553968,-1.580513076,0.003996601,-0.057000113,-2.368814525,Subject B,neutral
0.003947899,-1.681572129,-0.060329049,-0.076159058,-2.234407233,Subject B,neutral
0.003345199,-1.547450645,-0.086322274,-0.089273054,-2.431773766,Subject B,neutral
0.00274597,-1.146176979,-0.019331836,-0.100024711,-2.950817135,Subject B,neutral
0.002150314,-0.644706537,0.095890189,-0.110492125,-3.149961954,Subject B,neutral
0.001558327,-0.320085626,0.174685621,-0.128850704,-2.614292045,Subject B,neutral
0.000970106,-0.303036829,0.176456909,-0.160506274,-1.754148755,Subject B,neutral
0.000385744,-0.433685027,0.130031945,-0.19125713,-1.38090256,Subject B,neutral
-0.000194668,-0.423496821,0.091000624,-0.194942634,-1.798556939,Subject B,neutral
-0.000771042,-0.186537595,0.085990207,-0.165960237,-2.489328646,Subject B,neutral
-0.001343291,0.037789884,0.097299401,-0.134295029,-2.707846554,Subject B,neutral
-0.001911334,-0.037940242,0.092348929,-0.136205985,-2.264875358,Subject B,neutral
-0.002475092,-0.379660187,0.062962117,-0.172552108,-1.648776483,Subject B,neutral
-0.003034489,-0.656471004,0.035866571,-0.207999064,-1.430007277,Subject B,neutral
-0.003589452,-0.655406717,0.042080886,-0.214375169,-1.66631121,Subject B,neutral
-0.004139908,-0.53436075,0.076488687,-0.204060657,-1.943530138,Subject B,neutral
-0.00468579,-0.567816801,0.099015033,-0.211392827,-1.908460152,Subject B,neutral
-0.005227029,-0.747652005,0.082598056,-0.245865294,-1.622720042,Subject B,neutral
-0.005763562,-0.792122691,0.047689401,-0.275482622,-1.386133657,Subject B,neutral
-0.006295326,-0.534388756,0.03598264,-0.262156957,-1.350305457,Subject B,neutral
-0.006822263,-0.158747694,0.057174005,-0.209031319,-1.403773022,Subject B,neutral
-0.007344315,0.01395867,0.07682626,-0.161425594,-1.383624454,Subject B,neutral
-0.00786143,-0.093912651,0.056725083,-0.153897248,-1.297967644,Subject B,neutral
-0.008373554,-0.239237562,-0.005759383,-0.16589577,-1.313438063,Subject B,neutral
-0.008880641,-0.168371617,-0.084750425,-0.147292585,-1.544973898,Subject B,neutral
-0.009382644,0.058048972,-0.163347763,-0.086782048,-1.862110051,Subject B,neutral
-0.00987952,0.119199583,-0.250646153,-0.032898752,-1.927717337,Subject B,neutral
-0.010371226,-0.175103208,-0.359748577,-0.035937212,-1.50026882,Subject B,neutral
-0.010857727,-0.605438404,-0.480897708,-0.085075422,-0.717114033,Subject B,neutral
-0.011338984,-0.724910198,-0.58549276,-0.120486678,-0.001020675,Subject B,neutral
-0.011814965,-0.326760706,-0.651720434,-0.10137671,0.348757867,Subject B,neutral
-0.012285638,0.328333916,-0.678795415,-0.046167394,0.395855634,Subject B,neutral
-0.012750975,0.789399386,-0.679140432,-0.006116219,0.375588738,Subject B,neutral
-0.01321095,0.878963921,-0.663931438,-0.013400553,0.39457044,Subject B,neutral
-0.013665539,0.82419034,-0.637810015,-0.060204602,0.424214267,Subject B,neutral
-0.014114722,0.943670931,-0.605624911,-0.118000098,0.494149186,Subject B,neutral
-0.014558479,1.276864109,-0.58128519,-0.165098403,0.708939627,Subject B,neutral
-0.014996794,1.558969022,-0.584705628,-0.194328962,1.05050034,Subject B,neutral
-0.015429655,1.52446239,-0.627416316,-0.20254137,1.316287592,Subject B,neutral
-0.015857051,1.180801572,-0.703152375,-0.184052277,1.345502679,Subject B,neutral
-0.016278975,0.779038549,-0.789284886,-0.141993035,1.212014106,Subject B,neutral
-0.016695422,0.562656834,-0.849447914,-0.102249269,1.088821554,Subject B,neutral
-0.017106392,0.5746895,-0.841179142,-0.100319056,0.994461732,Subject B,neutral
-0.017511884,0.670871626,-0.745394785,-0.142088999,0.812735684,Subject B,neutral
-0.017911899,0.664794358,-0.603315808,-0.184730811,0.545841377,Subject B,neutral
-0.018306443,0.479941558,-0.508508532,-0.174473199,0.391179404,Subject B,neutral
-0.018695519,0.233511193,-0.532713631,-0.108105748,0.489047813,Subject B,neutral
-0.019079136,0.173879929,-0.650630958,-0.04311048,0.691428123,Subject B,neutral
-0.019457303,0.447607154,-0.755662766,-0.036014101,0.708131754,Subject B,neutral
-0.01983003,0.889428473,-0.762182206,-0.07972275,0.47056052,Subject B,neutral
-0.020197328,1.118616349,-0.681166369,-0.11534059,0.247319852,Subject B,neutral
-0.020559213,0.915496464,-0.589277573,-0.09919014,0.368204639,Subject B,neutral
-0.020915699,0.485807798,-0.544335508,-0.039532192,0.885637752,Subject B,neutral
-0.021266801,0.303928639,-0.545417766,0.03070377,1.52135413,Subject B,neutral
-0.021612537,0.654253145,-0.554462098,0.091183404,1.898306066,Subject B,neutral
-0.021952924,1.293041427,-0.532831141,0.131490945,1.815869822,Subject B,neutral
-0.022287981,1.599936248,-0.466511525,0.133917515,1.368515321,Subject B,neutral
-0.022617726,1.177437365,-0.375285215,0.087708817,0.861592071,Subject B,neutral
-0.02294218,0.320862225,-0.293194068,0.017850309,0.586487457,Subject B,neutral
-0.023261364,-0.245328908,-0.229968564,-0.026561293,0.597747148,Subject B,neutral
-0.023575297,-0.164573688,-0.162901258,-0.023991387,0.685580234,Subject B,neutral
-0.023884002,0.171721716,-0.080266516,-0.005521255,0.614349814,Subject B,neutral
-0.0241875,0.163781862,-0.018158398,-0.015529633,0.39272685,Subject B,neutral
-0.024485812,-0.22967167,-0.026916442,-0.058036148,0.230014653,Subject B,neutral
-0.024778959,-0.491992383,-0.100402934,-0.098378526,0.212883163,Subject B,neutral
-0.025066962,-0.277415271,-0.165324882,-0.113120756,0.165827074,Subject B,neutral
-0.025349841,0.115854609,-0.154286644,-0.118077643,-0.071093731,Subject B,neutral
-0.025627614,0.133568153,-0.072347894,-0.140577405,-0.360018258,Subject B,neutral
-0.025900299,-0.303604318,0.022184225,-0.179529733,-0.435183118,Subject B,neutral
-0.026167914,-0.66693092,0.083338366,-0.207441607,-0.278525253,Subject B,neutral
-0.026430474,-0.469814543,0.100814029,-0.208135052,-0.10769609,Subject B,neutral
-0.026687995,0.112216919,0.075814156,-0.200527067,0.014600486,Subject B,neutral
-0.026940491,0.460575893,0.015613726,-0.219885718,0.318254544,Subject B,neutral
-0.027187975,0.300246211,-0.040595581,-0.276843598,0.932708379,Subject B,neutral
-0.027430461,0.017601185,-0.030242209,-0.339069165,1.518110295,Subject B,neutral
-0.027667959,0.1164454,0.066435021,-0.360959234,1.541005931,Subject B,neutral
-0.027900481,0.577867291,0.185775798,-0.336160751,0.950072047,Subject B,neutral
-0.028128037,0.934616313,0.239449133,-0.313335281,0.375346853,Subject B,neutral
-0.028350636,0.876976335,0.210370682,-0.346819598,0.486202753,Subject B,neutral
-0.028568288,0.613528986,0.16194655,-0.430419818,1.216196975,Subject B,neutral
-0.028781001,0.608430771,0.153806906,-0.493062588,1.810770207,Subject B,neutral
-0.028988783,1.025764074,0.182574176,-0.46986081,1.678472074,Subject B,neutral
-0.029191644,1.490988937,0.215164796,-0.37240315,1.032650431,Subject B,neutral
-0.02938959,1.451443047,0.243181445,-0.277841599,0.587155824,Subject B,neutral
-0.029582631,0.790559489,0.274159346,-0.24774268,0.744478229,Subject B,neutral
-0.029770775,0.032716881,0.292828565,-0.268624837,1.251879343,Subject B,neutral
-0.02995403,-0.139879684,0.274081795,-0.278662984,1.605026343,Subject B,neutral
-0.030132402,0.410795855,0.231552116,-0.241337878,1.591849672,Subject B,neutral
-0.030305899,1.125050557,0.211760824,-0.177433038,1.38806139,Subject B,neutral
-0.030474527,1.351140751,0.22934025,-0.130947012,1.275957239,Subject B,neutral
-0.030638291,1.056186084,0.246639068,-0.126857205,1.389755537,Subject B,neutral
-0.030797196,0.817932661,0.240588824,-0.168543491,1.652200096,Subject B,neutral
-0.030951247,1.086089471,0.256004795,-0.252217894,1.821048168,Subject B,neutral
-0.031100447,1.588945132,0.351565574,-0.358344116,1.621420848,Subject B,neutral
-0.031244799,1.618389028,0.504325725,-0.435617221,0.987656271,Subject B,neutral
-0.031384307,0.868615135,0.612359674,-0.425456611,0.241380843,Subject B,neutral
-0.031518973,-0.176299374,0.608360806,-0.322337098,-0.094198843,Subject B,neutral
-0.031648802,-0.751600616,0.543302495,-0.198017269,0.17955367,Subject B,neutral
