timestamps,TP9,AF7,AF8,TP10,Subject,Emotion
0.001054846,0.111587263,0.409350193,-0.12153462,0.032188461,Subject B,neutral
0.000728834,0.276186484,0.399233144,-0.131301053,-0.148933283,Subject B,neutral
0.000402445,0.334828142,0.350022518,-0.121304028,-0.203062913,Subject B,neutral
7.57e-05,0.132200285,0.267325645,-0.101838586,-0.126598742,Subject B,neutral
-0.000251371,-0.141143447,0.183963358,-0.082976143,-0.020117276,Subject B,neutral
-0.000578746,-0.185086096,0.12993919,-0.067308182,0.032912759,Subject B,neutral
-0.000906399,0.008242626,0.111180406,-0.05602948,0.0289291,Subject B,neutral
-0.001234303,0.12501784,0.112689098,-0.059611889,0.001352999,Subject B,neutral
-0.00156243,-0.068484327,0.112906492,-0.092392664,-0.034810024,Subject B,neutral
-0.001890751,-0.409408605,0.097416386,-0.150022721,-0.07007607,Subject B,neutral
-0.002219238,-0.528593128,0.067335273,-0.199503887,-0.070106276,Subject B,neutral
-0.002547861,-0.313327112,0.035875455,-0.203330869,-0.014170275,Subject B,neutral
-0.002876588,-0.048464238,0.014084428,-0.155078638,0.037261248,Subject B,neutral
-0.003205387,-0.053526273,0.002234619,-0.084700597,-0.026726081,Subject B,neutral
-0.003534226,-0.281843328,-0.002138224,-0.027250275,-0.229617516,Subject B,neutral
-0.003863069,-0.391822305,0.00599365,0.007527596,-0.433949391,Subject B,neutral
-0.00419188,-0.190600262,0.030986956,0.031845662,-0.463124257,Subject B,neutral
-0.004520619,0.122117118,0.057361673,0.053974743,-0.296464492,Subject B,neutral
-0.004849246,0.215834687,0.050601448,0.066296955,-0.092483725,Subject B,neutral
-0.005177722,0.048645856,-0.011120068,0.060149678,-0.002409276,Subject B,neutral
-0.005506004,-0.100338229,-0.107180299,0.042502167,-0.00886137,Subject B,neutral
-0.005834049,-0.018009233,-0.186350462,0.028796681,0.011812827,Subject B,neutral
-0.006161812,0.153849446,-0.211836336,0.021432008,0.103154292,Subject B,neutral
-0.006489248,0.112253819,-0.189949767,0.00453465,0.173186459,Subject B,neutral
-0.006816311,-0.186553727,-0.155392055,-0.035439289,0.135959746,Subject B,neutral
-0.007142954,-0.439953392,-0.13826077,-0.087903658,0.046892162,Subject B,neutral
-0.007469129,-0.371755548,-0.148409202,-0.123331945,0.041001678,Subject B,neutral
-0.007794786,-0.08741251,-0.180081779,-0.12304783,0.152594582,Subject B,neutral
-0.008119876,0.050405605,-0.219398271,-0.102271058,0.256794625,Subject B,neutral
-0.008444348,-0.128073739,-0.249081428,-0.099732485,0.214995629,Subject B,neutral
-0.008768149,-0.395982026,-0.256548162,-0.141278267,0.041225303,Subject B,neutral
-0.009091226,-0.42884495,-0.243544999,-0.213799204,-0.119712019,Subject B,neutral
-0.009413523,-0.221118454,-0.226490685,-0.277505442,-0.169956023,Subject B,neutral
-0.009734984,-0.085390848,-0.222878667,-0.30376883,-0.163805128,Subject B,neutral
-0.01005555,-0.235601782,-0.232793634,-0.297313554,-0.210499582,Subject B,neutral
-0.01037516,-0.49822481,-0.23408583,-0.281952411,-0.308979373,Subject B,neutral
-0.01069375,-0.536614006,-0.204496363,-0.273245176,-0.336607027,Subject B,neutral
-0.011011254,-0.298134547,-0.155126315,-0.270876002,-0.208646202,Subject B,neutral
-0.011327604,-0.086657173,-0.132326693,-0.270546852,0.002168003,Subject B,neutral
-0.011642729,-0.155755241,-0.170650876,-0.271596107,0.144012102,Subject B,neutral
-0.011956555,-0.366410645,-0.246096634,-0.271508035,0.161453141,Subject B,neutral
-0.012269006,-0.37305126,-0.29296645,-0.261480503,0.145493884,Subject B,neutral
-0.012580003,-0.087895346,-0.271389416,-0.234377577,0.201615014,Subject B,neutral
-0.012889469,0.203909205,-0.204316143,-0.196353542,0.310765315,Subject B,neutral
-0.013197322,0.22957012,-0.139893682,-0.165393936,0.362317681,Subject B,neutral
-0.013503481,0.087183188,-0.08908638,-0.154748521,0.312526925,Subject B,neutral
-0.013807862,0.093673258,-0.017577347,-0.158437212,0.252943435,Subject B,neutral
-0.01411038,0.336392308,0.098645519,-0.154648733,0.285274418,Subject B,neutral
-0.014410948,0.543757172,0.226419219,-0.122889429,0.362538724,Subject B,neutral
-0.014709479,0.45599045,0.300986449,-0.058745857,0.324363751,Subject B,neutral
-0.015005882,0.19547355,0.295376714,0.022902277,0.110444448,Subject B,neutral
-0.01530007,0.124737461,0.248575737,0.095044595,-0.117606465,Subject B,neutral
-0.015591949,0.36451069,0.222551686,0.132121785,-0.129938518,Subject B,neutral
-0.015881429,0.616324662,0.245094363,0.125082223,0.102782573,Subject B,neutral
-0.016168417,0.54641447,0.29840992,0.089580196,0.350477792,Subject B,neutral
-0.016452819,0.234802496,0.346893582,0.058475525,0.358540345,Subject B,neutral
-0.016734542,0.085711621,0.362533992,0.05900516,0.109814409,Subject B,neutral
-0.017013493,0.301054681,0.333841365,0.091194268,-0.178260653,Subject B,neutral
-0.017289579,0.606761466,0.27229341,0.129219736,-0.296673474,Subject B,neutral
-0.017562707,0.59956653,0.216589874,0.147062047,-0.242424025,Subject B,neutral
-0.017832785,0.266034427,0.214326052,0.141559675,-0.17245548,Subject B,neutral
-0.01809972,-0.005259306,0.279425704,0.126828172,-0.206086098,Subject B,neutral
-0.018363422,0.066485949,0.364653192,0.109023319,-0.310533783,Subject B,neutral
-0.018623799,0.293534582,0.391169522,0.076226172,-0.371741411,Subject B,neutral
-0.018880763,0.281518119,0.319476707,0.018101513,-0.336463247,Subject B,neutral
-0.019134224,-0.034709111,0.188830769,-0.050417242,-0.256443339,Subject B,neutral
-0.019384098,-0.292636351,0.077660529,-0.093536574,-0.208419626,Subject B,neutral
-0.019630299,-0.176307715,0.029798188,-0.085657328,-0.216115191,Subject B,neutral
-0.019872746,0.156988986,0.030367067,-0.037942461,-0.2707219,Subject B,neutral
-0.020111359,0.259318785,0.044413739,0.0064522,-0.386464443,Subject B,neutral
-0.020346062,-0.045470246,0.054616403,0.006337685,-0.577423248,Subject B,neutral
-0.020576781,-0.438411374,0.058394322,-0.043946544,-0.781529923,Subject B,neutral
-0.020803444,-0.50206056,0.05342913,-0.112491417,-0.870361006,Subject B,neutral
-0.021025987,-0.229367532,0.041433258,-0.160650973,-0.777078613,Subject B,neutral
-0.021244345,-0.006862729,0.031442327,-0.175390549,-0.589262042,Subject B,neutral
-0.021458462,-0.114584436,0.022833802,-0.172453775,-0.467569503,Subject B,neutral
-0.021668281,-0.396149677,-0.006317492,-0.172279219,-0.471795107,Subject B,neutral
-0.021873754,-0.510274504,-0.075181965,-0.177940077,-0.509409612,Subject B,neutral
-0.022074833,-0.402609106,-0.163577668,-0.177470521,-0.473723049,Subject B,neutral
-0.022271477,-0.35633599,-0.216294313,-0.16132389,-0.390533469,Subject B,neutral
-0.022463648,-0.565374624,-0.196031168,-0.129153698,-0.37536655,Subject B,neutral
-0.022651313,-0.830995628,-0.127163352,-0.081921671,-0.456926872,Subject B,neutral
-0.022834441,-0.811974043,-0.076283461,-0.022118609,-0.513248715,Subject B,neutral
-0.023013007,-0.492991556,-0.088370628,0.030585812,-0.422936494,Subject B,neutral
-0.02318699,-0.229064702,-0.148530667,0.037915851,-0.236302377,Subject B,neutral
-0.023356373,-0.294656444,-0.205622165,-0.021675261,-0.130776877,Subject B,neutral
-0.023521141,-0.531370632,-0.222146206,-0.112007883,-0.196987261,Subject B,neutral
-0.023681287,-0.555180519,-0.1954454,-0.149295759,-0.327295051,Subject B,neutral
-0.023836804,-0.250117248,-0.141921877,-0.072720259,-0.349743039,Subject B,neutral
-0.023987691,0.086351013,-0.077043215,0.088194491,-0.240828742,Subject B,neutral
-0.024133948,0.120691999,-0.013402875,0.226864868,-0.151348535,Subject B,neutral
-0.024275578,-0.108948804,0.03147088,0.255887466,-0.207409948,Subject B,neutral
-0.024412589,-0.268063381,0.036179826,0.192386297,-0.328187284,Subject B,neutral
-0.024544988,-0.165191591,-0.006707268,0.136013213,-0.294801311,Subject B,neutral
-0.024672787,0.024254097,-0.06972365,0.159640066,-0.004338773,Subject B,neutral
-0.024795998,0.027663424,-0.097974712,0.237724599,0.393015463,Subject B,neutral
-0.024914637,-0.140738245,-0.05649109,0.291280764,0.645062486,Subject B,neutral
-0.025028723,-0.201151687,0.028520178,0.283683962,0.661118617,Subject B,neutral
-0.025138276,0.001662966,0.095441607,0.248055771,0.579972354,Subject B,neutral
-0.025243317,0.272887488,0.120786517,0.229479665,0.577638486,Subject B,neutral
-0.02534387,0.311125163,0.143916136,0.234110886,0.660892694,Subject B,neutral
-0.025439959,0.09335086,0.20196165,0.246666182,0.690553846,Subject B,neutral
-0.025531609,-0.105846543,0.26285868,0.268714269,0.580954025,Subject B,neutral
-0.025618849,-0.071057456,0.257039276,0.307812199,0.412862423,Subject B,neutral
-0.025701707,0.10386779,0.173567,0.337590299,0.334060623,Subject B,neutral
-0.025780213,0.19034508,0.091078106,0.307285116,0.39775188,Subject B,neutral
-0.025854394,0.156566248,0.093854106,0.209758308,0.531611057,Subject B,neutral
-0.025924279,0.183637356,0.172670714,0.117559926,0.63119495,Subject B,neutral
-0.025989901,0.349638828,0.231147641,0.119654069,0.642555061,Subject B,neutral
-0.026051299,0.446522638,0.187275654,0.219161922,0.570865186,Subject B,neutral
-0.026108508,0.225214441,0.049909436,0.314411446,0.455386366,Subject B,neutral
-0.026161554,-0.231257412,-0.104291046,0.294859365,0.356413649,Subject B,neutral
-0.026210459,-0.516986214,-0.204207511,0.151705071,0.350472687,Subject B,neutral
-0.026255258,-0.339076525,-0.223220781,-0.013289461,0.494167992,Subject B,neutral
-0.02629601,0.128828382,-0.17186871,-0.086435999,0.745999093,Subject B,neutral
-0.02633277,0.425461384,-0.084687668,-0.042865479,0.934552571,Subject B,neutral
-0.026365544,0.331715861,-0.011772924,0.050417162,0.879570423,Subject B,neutral
-0.026394307,0.116395398,0.004593894,0.117858126,0.587793617,Subject B,neutral
-0.026419084,0.182389926,-0.04135812,0.143429353,0.284009308,Subject B,neutral
-0.026440016,0.545391112,-0.118602641,0.155942849,0.2009156,Subject B,neutral
-0.026457256,0.806021359,-0.185696289,0.173935916,0.362770007,Subject B,neutral
-0.026470765,0.654932711,-0.209636459,0.191971561,0.606907187,Subject B,neutral
-0.026480296,0.265716643,-0.170994264,0.213490635,0.779194459,Subject B,neutral
-0.02648576,0.075550848,-0.077282169,0.26258221,0.851388546,Subject B,neutral
-0.026487599,0.240504838,0.024302081,0.346157757,0.861242391,Subject B,neutral
-0.026486469,0.463263911,0.071026459,0.42360754,0.812114842,Subject B,neutral
-0.02648227,0.403511321,0.038240133,0.438846342,0.679959652,Subject B,neutral
-0.026473792,0.128086859,-0.037787311,0.381702098,0.494789459,Subject B,neutral
-0.026460153,0.009425005,-0.098856304,0.30101935,0.352601908,Subject B,neutral
-0.026442801,0.205677059,-0.12021083,0.252816916,0.313440037,Subject B,neutral
-0.0264248,0.420463103,-0.120017069,0.246623026,0.314989034,Subject B,neutral
-0.026406513,0.290059514,-0.122883776,0.248911399,0.23927611,Subject B,neutral
-0.026382767,-0.094707789,-0.130360133,0.231137014,0.076453228,Subject B,neutral
-0.026348052,-0.247196527,-0.129215343,0.203828455,-0.02465474,Subject B,neutral
-0.026306698,0.101440635,-0.113596709,0.201067424,0.083584682,Subject B,neutral
-0.026273247,0.619782973,-0.088377727,0.236242523,0.353094182,Subject B,neutral
-0.026254119,0.754952656,-0.058043729,0.281589885,0.563738629,Subject B,neutral
-0.026227618,0.417391658,-0.02486799,0.297368892,0.558585058,Subject B,neutral
-0.026153393,0.092331718,0.001455822,0.276014223,0.407017109,Subject B,neutral
-0.026013403,0.223022766,0.003223033,0.246303377,0.29812431,Subject B,neutral
-0.025840478,0.652004162,-0.027210209,0.234604741,0.311377317,Subject B,neutral
-0.025694559,0.830567299,-0.071076409,0.234554634,0.3520674,Subject B,neutral
-0.025608478,0.513632181,-0.095679738,0.218787156,0.307421866,Subject B,neutral
-0.02556419,0.04986123,-0.087788759,0.170625562,0.205630359,Subject B,neutral
-0.025521344,-0.070412928,-0.065479876,0.098861091,0.182024074,Subject B,neutral
-0.02545824,0.203611972,-0.05039631,0.028172723,0.306846479,Subject B,neutral
-0.025381296,0.492129939,-0.040566029,-0.019767979,0.489844169,Subject B,neutral
-0.025305048,0.497905701,-0.023263606,-0.040286549,0.57469427,Subject B,neutral
-0.025233818,0.330158361,-0.002068872,-0.046876345,0.50810173,Subject B,neutral
-0.02516209,0.276723505,0.008728499,-0.058747544,0.385139664,Subject B,neutral
-0.025084679,0.399717638,0.008606661,-0.084803899,0.326350031,Subject B,neutral
-0.025001934,0.496376701,0.006905784,-0.117460242,0.344076152,Subject B,neutral
-0.024916907,0.421613365,-0.002495759,-0.139235693,0.361511711,Subject B,neutral
-0.024831029,0.290957857,-0.037914749,-0.135496748,0.347980604,Subject B,neutral
-0.024743401,0.291571558,-0.094402733,-0.107690551,0.375546218,Subject B,neutral
-0.024652795,0.393931012,-0.129750166,-0.08032086,0.503427756,Subject B,neutral
-0.024559091,0.387465533,-0.100767641,-0.088545275,0.645379821,Subject B,neutral
-0.024462928,0.194640799,-0.010528666,-0.145154855,0.627167107,Subject B,neutral
-0.024364728,0.013132812,0.089823408,-0.218238492,0.392309658,Subject B,neutral
-0.024264387,0.060975711,0.148175899,-0.255397736,0.094905669,Subject B,neutral
-0.024161641,0.254606113,0.154095514,-0.238413251,-0.053316626,Subject B,neutral
-0.024056434,0.27570976,0.132866904,-0.204331591,-0.002199215,Subject B,neutral
-0.023948906,-0.018571351,0.109881136,-0.201830177,0.107335111,Subject B,neutral
-0.023839181,-0.36862632,0.094689581,-0.234103518,0.114395611,Subject B,neutral
-0.023727276,-0.398363833,0.092675776,-0.259647786,-0.0060597,Subject B,neutral
-0.023613151,-0.083850858,0.10985252,-0.247200364,-0.156676031,Subject B,neutral
-0.023496806,0.197814425,0.138288664,-0.211814285,-0.236237221,Subject B,neutral
-0.023378285,0.129947826,0.151684721,-0.189671959,-0.214850571,Subject B,neutral
-0.023257642,-0.150607617,0.12940627,-0.192695215,-0.120855066,Subject B,neutral
-0.023134907,-0.242459339,0.081330622,-0.203834996,-0.003143221,Subject B,neutral
-0.023010097,-0.007613737,0.038525021,-0.211193942,0.080225832,Subject B,neutral
-0.022883235,0.259064399,0.019290622,-0.228111636,0.069500326,Subject B,neutral
-0.022754353,0.241519219,0.01530012,-0.272214387,-0.053448072,Subject B,neutral
-0.022623487,0.039123982,0.017704856,-0.333716718,-0.212872286,Subject B,neutral
-0.02249067,0.034748189,0.044352657,-0.375451134,-0.269910773,Subject B,neutral
-0.02235593,0.357511574,0.117369716,-0.367838036,-0.165499977,Subject B,neutral
-0.022219294,0.653355684,0.208779279,-0.322076382,-0.028887248,Subject B,neutral
-0.022080792,0.493141287,0.236227328,-0.28273908,-0.063458183,Subject B,neutral
-0.021940455,-0.080619019,0.143433611,-0.279852859,-0.282244276,Subject B,neutral
-0.021798313,-0.570034749,-0.019384718,-0.290700164,-0.435967293,Subject B,neutral
-0.021654394,-0.600646267,-0.125774719,-0.264165947,-0.300918339,Subject B,neutral
-0.021508729,-0.343249999,-0.098503449,-0.189131018,-4.53e-05,Subject B,neutral
-0.021361347,-0.254065835,0.010009031,-0.120495843,0.091221761,Subject B,neutral
-0.021212277,-0.480461984,0.078385325,-0.117409574,-0.21204956,Subject B,neutral
-0.021061548,-0.705204673,0.048100551,-0.165061912,-0.669338451,Subject B,neutral
-0.02090919,-0.620041365,-0.025989695,-0.185045153,-0.903747294,Subject B,neutral
-0.02075523,-0.380047806,-0.05485772,-0.128892693,-0.848546634,Subject B,neutral
-0.020599697,-0.409233404,-0.016492861,-0.037866264,-0.785887013,Subject B,neutral
-0.020442616,-0.808898826,0.037912631,0.00693401,-0.962727062,Subject B,neutral
-0.020284015,-1.184353941,0.054828634,-0.020184989,-1.302595811,Subject B,neutral
-0.020123922,-1.152950229,0.024366845,-0.066332709,-1.549749601,Subject B,neutral
-0.019962362,-0.857549348,-0.035298118,-0.068594511,-1.601127176,Subject B,neutral
-0.019799362,-0.784488925,-0.103534022,-0.02184013,-1.590900397,Subject B,neutral
-0.01963495,-1.121815431,-0.157682278,0.031713146,-1.662081436,Subject B,neutral
-0.019469151,-1.511611383,-0.174337426,0.062327376,-1.752717653,Subject B,neutral
-0.019301993,-1.519544582,-0.150675501,0.079166737,-1.674799996,Subject B,neutral
-0.019133505,-1.195921703,-0.113661491,0.097247341,-1.379469276,Subject B,neutral
-0.018963716,-0.997253724,-0.089910416,0.101544369,-1.061018026,Subject B,neutral
-0.018792655,-1.187726587,-0.072100113,0.064976969,-0.948897436,Subject B,neutral
-0.018620353,-1.508227012,-0.035787599,-0.003060933,-1.034032583,Subject B,neutral
-0.018446841,-1.526330132,0.010033178,-0.050787658,-1.073815189,Subject B,neutral
-0.018272148,-1.187625597,0.015912325,-0.039651392,-0.883785806,Subject B,neutral
-0.018096307,-0.852263249,-0.045819553,0.007867086,-0.565798068,Subject B,neutral
-0.017919347,-0.798058125,-0.127792947,0.034865385,-0.388134461,Subject B,neutral
-0.017741299,-0.864121203,-0.144459951,0.020330891,-0.452903721,Subject B,neutral
-0.017562191,-0.702936871,-0.063505179,0.001576498,-0.556530033,Subject B,neutral
-0.017382051,-0.293272275,0.060714898,0.019606349,-0.428986116,Subject B,neutral
-0.017200908,-0.010265231,0.151270786,0.061466107,-0.072190312,Subject B,neutral
-0.017018787,-0.131420025,0.186280828,0.076595152,0.222109124,Subject B,neutral
-0.016835714,-0.431515594,0.197179729,0.044220288,0.210590809,Subject B,neutral
-0.016651714,-0.437216124,0.204999451,0.00329808,-0.016676311,Subject B,neutral
-0.016466813,-0.033607471,0.189493182,0.008574331,-0.150234766,Subject B,neutral
-0.016281034,0.38220904,0.130825917,0.069386645,-0.022813893,Subject B,neutral
-0.016094403,0.41318176,0.057432929,0.14312707,0.223461788,Subject B,neutral
-0.015906944,0.163086279,0.025443482,0.184414957,0.33782962,Subject B,neutral
-0.015718681,0.072519659,0.0542877,0.188172721,0.251932003,Subject B,neutral
-0.01552964,0.322939824,0.105915718,0.181652728,0.112801019,Subject B,neutral
-0.015339844,0.593446688,0.132554045,0.186593719,0.06101587,Subject B,neutral
-0.015149319,0.476324911,0.125322676,0.202168901,0.064803822,Subject B,neutral
-0.014958089,0.009390714,0.106328087,0.221046203,0.012503608,Subject B,neutral
-0.014766178,-0.352919948,0.092147923,0.244932883,-0.093293886,Subject B,neutral
-0.014573609,-0.290347145,0.083709162,0.275967039,-0.12285064,Subject B,neutral
-0.014380407,0.005008906,0.080134788,0.303130529,-0.0013116,Subject B,neutral
-0.014186596,0.09235255,0.078978846,0.310005696,0.176486135,Subject B,neutral
-0.013992198,-0.158464952,0.065152144,0.293945103,0.255834612,Subject B,neutral
-0.013797234,-0.424725714,0.023679184,0.266741761,0.200118911,Subject B,neutral
-0.013601726,-0.368740214,-0.028778075,0.23500083,0.108267619,Subject B,neutral
-0.013405694,-0.07092413,-0.044382359,0.191197456,0.0788117,Subject B,neutral
-0.013209158,0.099546034,0.007686413,0.132616281,0.111724368,Subject B,neutral
-0.013012139,-0.016813266,0.100199588,0.083280274,0.145261052,Subject B,neutral
-0.012814654,-0.171542786,0.167461066,0.08398186,0.136880432,Subject B,neutral
-0.012616723,-0.064535561,0.165712211,0.152987402,0.077336773,Subject B,neutral
-0.01241836,0.231791017,0.11078215,0.258054788,-0.044341352,Subject B,neutral
-0.01221958,0.354765229,0.060918509,0.334644991,-0.236716575,Subject B,neutral
-0.012020396,0.138565328,0.064840783,0.34022711,-0.449317919,Subject B,neutral
-0.011820819,-0.143456847,0.116471551,0.293366779,-0.555412745,Subject B,neutral
-0.011620858,-0.1205642,0.152746735,0.254268774,-0.447422543,Subject B,neutral
-0.011420523,0.184519092,0.106863218,0.262687704,-0.170884149,Subject B,neutral
-0.011219821,0.364616792,-0.018673467,0.299337521,0.072390927,Subject B,neutral
-0.011018756,0.140288551,-0.133508425,0.314867585,0.100641647,Subject B,neutral
-0.010817334,-0.279419586,-0.135150039,0.293029746,-0.068787549,Subject B,neutral
-0.010615556,-0.446494786,-0.015589144,0.271364482,-0.24737947,Subject B,neutral
-0.010413424,-0.2103293,0.120119349,0.292817497,-0.285805968,Subject B,neutral
-0.010210938,0.131462947,0.155920324,0.350201242,-0.225489173,Subject B,neutral
-0.010008098,0.229120823,0.077852184,0.395670409,-0.222196527,Subject B,neutral
-0.009804903,0.095040278,-0.026655322,0.399848288,-0.341628366,Subject B,neutral
-0.00960135,0.017559157,-0.071973166,0.381407358,-0.472855843,Subject B,neutral
-0.009397441,0.125499405,-0.057048366,0.37555402,-0.463321799,Subject B,neutral
-0.009193172,0.203621289,-0.046845316,0.391123154,-0.313182808,Subject B,neutral
-0.008988543,0.008504101,-0.091851938,0.407390135,-0.187672218,Subject B,neutral
-0.008783553,-0.347037298,-0.177780032,0.401668668,-0.221598206,Subject B,neutral
-0.008578201,-0.481245883,-0.247408844,0.369153311,-0.3518857,Subject B,neutral
-0.008372487,-0.220961335,-0.259173296,0.319562172,-0.390174246,Subject B,neutral
-0.008166409,0.151868187,-0.220829455,0.263881963,-0.249849895,Subject B,neutral
-0.007959967,0.231410388,-0.172914615,0.207956394,-0.045832574,Subject B,neutral
-0.007753161,-0.01321137,-0.148317526,0.156519114,0.050900567,Subject B,neutral
