timestamps,TP9,AF7,AF8,TP10,Subject,Emotion
-0.00628382,1.579986528,0.253965878,0.012633052,1.914227672,Subject C,Distracted
-0.006028709,1.377898053,-0.623098502,0.001266139,1.754090355,Subject C,Distracted
-0.005772433,1.206508216,-0.775583866,-0.003247457,1.631335844,Subject C,Distracted
-0.00551509,1.237914314,0.115252997,-0.005804834,1.703824088,Subject C,Distracted
-0.005256779,1.415294423,1.175329451,-0.038802899,1.916965821,Subject C,Distracted
-0.004997602,1.562330284,1.40879167,-0.108094997,2.0708304,Subject C,Distracted
-0.00473766,1.611306244,0.838865714,-0.169611242,2.053391881,Subject C,Distracted
-0.004477058,1.638851369,0.28831561,-0.174258516,1.941310787,Subject C,Distracted
-0.004215898,1.704017172,0.228068033,-0.127434741,1.846039546,Subject C,Distracted
-0.003954285,1.753075979,0.276509652,-0.086439914,1.731481813,Subject C,Distracted
-0.003692322,1.718192795,-0.072475533,-0.095088861,1.47616746,Subject C,Distracted
-0.003430116,1.633572944,-0.602628986,-0.133578326,1.102640197,Subject C,Distracted
-0.003167768,1.583272931,-0.619106672,-0.1438529,0.833235564,Subject C,Distracted
-0.002905384,1.566980699,0.061694377,-0.098518101,0.855743911,Subject C,Distracted
-0.002643067,1.494076742,0.774396256,-0.030335334,1.090468522,Subject C,Distracted
-0.002380923,1.321876058,0.823220923,0.008734362,1.261410813,Subject C,Distracted
-0.002119054,1.145603748,0.361227224,0.004830041,1.187034254,Subject C,Distracted
-0.001857566,1.109226657,0.14196875,-0.011107054,0.951583429,Subject C,Distracted
-0.001596562,1.233955573,0.486493329,-0.007957189,0.781946061,Subject C,Distracted
-0.001336145,1.368775784,0.86204533,0.007364081,0.787871127,Subject C,Distracted
-0.001076417,1.33886279,0.633873636,0.001910608,0.858700149,Subject C,Distracted
-0.000817482,1.143139907,-0.026163482,-0.038692566,0.832260716,Subject C,Distracted
-0.000559442,0.971307073,-0.303166438,-0.087515387,0.731874175,Subject C,Distracted
-0.000302395,0.991405474,0.212640446,-0.10386531,0.756074898,Subject C,Distracted
-4.64e-05,1.142542661,0.94562146,-0.080449654,1.002465865,Subject C,Distracted
0.000208319,1.204669876,0.984679636,-0.053221725,1.286275969,Subject C,Distracted
0.000461793,1.08314343,0.176385669,-0.058454838,1.327747695,Subject C,Distracted
0.000713887,0.934845284,-0.670389529,-0.088271322,1.085020612,Subject C,Distracted
0.000964507,0.947313571,-0.708481594,-0.102519521,0.793600291,Subject C,Distracted
0.001213564,1.066829659,0.001206524,-0.082627923,0.667308869,Subject C,Distracted
0.00146097,1.060844826,0.615107822,-0.054367711,0.664299869,Subject C,Distracted
0.001706641,0.831185482,0.50841579,-0.047990148,0.603090653,Subject C,Distracted
0.001950491,0.540467486,-0.050662651,-0.054036936,0.429639786,Subject C,Distracted
0.002192441,0.388254183,-0.332762487,-0.04204658,0.268576352,Subject C,Distracted
0.002432408,0.361433004,-0.117085545,-0.017194627,0.225374232,Subject C,Distracted
0.002670317,0.291365518,0.054872599,-0.02677391,0.241791182,Subject C,Distracted
0.00290609,0.112565362,-0.300930681,-0.094821901,0.198759539,Subject C,Distracted
0.003139656,-0.036479601,-0.824104173,-0.173036677,0.098425681,Subject C,Distracted
0.003370944,0.005412106,-0.707743959,-0.185802894,0.057154944,Subject C,Distracted
0.003599885,0.204904305,0.185133702,-0.119523423,0.127396845,Subject C,Distracted
0.003826412,0.362177709,1.028268782,-0.040955238,0.215030277,Subject C,Distracted
0.004050463,0.347863922,1.016314099,-0.02009198,0.214006066,Subject C,Distracted
0.004271975,0.246269027,0.322909261,-0.053860989,0.159378307,Subject C,Distracted
0.004490889,0.221511848,-0.214131345,-0.080336623,0.170468574,Subject C,Distracted
0.004707147,0.288230466,-0.191462374,-0.059364485,0.260724651,Subject C,Distracted
0.004920693,0.306307811,-0.042692315,-0.019429397,0.294638966,Subject C,Distracted
0.00513147,0.216229763,-0.278618077,-0.016700201,0.178597941,Subject C,Distracted
0.005339427,0.172848477,-0.675829015,-0.060068474,0.033498635,Subject C,Distracted
0.005544511,0.346640409,-0.565588045,-0.096454969,0.081914851,Subject C,Distracted
0.005746673,0.643853779,0.163951547,-0.074622502,0.353782399,Subject C,Distracted
0.005945864,0.762971475,0.776169512,-0.007812075,0.595486309,Subject C,Distracted
0.006142041,0.558596378,0.588456853,0.040521087,0.540748188,Subject C,Distracted
0.006335159,0.239229137,-0.125019357,0.025789887,0.227812028,Subject C,Distracted
0.00652518,0.13359156,-0.489744164,-0.039089256,-0.035413842,Subject C,Distracted
0.006712067,0.323425042,-0.210090146,-0.112318525,-0.025153912,Subject C,Distracted
0.006895782,0.58306156,0.019416561,-0.168065387,0.14851196,Subject C,Distracted
0.007076295,0.661363588,-0.521675325,-0.198750743,0.194804134,Subject C,Distracted
0.007253575,0.555880291,-1.490456638,-0.191525428,0.015712586,Subject C,Distracted
0.007427593,0.47913144,-1.770872317,-0.135472569,-0.162145241,Subject C,Distracted
0.007598323,0.580550872,-0.864180196,-0.055345006,-0.077125034,Subject C,Distracted
0.00776574,0.76260369,0.407841404,-0.006808528,0.220307899,Subject C,Distracted
0.007929821,0.814202308,0.837509407,-0.018994443,0.42328351,Subject C,Distracted
0.008090545,0.689686506,0.2321459,-0.059758198,0.357991827,Subject C,Distracted
0.008247891,0.572522828,-0.469780588,-0.077133031,0.189850319,Subject C,Distracted
0.008401841,0.645641034,-0.433542785,-0.062723412,0.187343195,Subject C,Distracted
0.008552378,0.8724497,0.093976885,-0.053591204,0.377694569,Subject C,Distracted
0.008699487,1.058880491,0.234567192,-0.076873373,0.543344618,Subject C,Distracted
0.008843154,1.090143179,-0.316039163,-0.11304169,0.531722935,Subject C,Distracted
0.008983367,1.036390466,-0.897499318,-0.120373252,0.450013796,Subject C,Distracted
0.009120114,1.026501273,-0.786471814,-0.086025545,0.498082049,Subject C,Distracted
0.009253385,1.085900496,-0.195754822,-0.042989443,0.682434958,Subject C,Distracted
0.00938317,1.141538776,-0.0321386,-0.0337456,0.800674649,Subject C,Distracted
0.009509461,1.146257131,-0.689159591,-0.060679683,0.709293225,Subject C,Distracted
0.00963225,1.12507969,-1.465276503,-0.080087242,0.507700211,Subject C,Distracted
0.009751528,1.08781875,-1.416728268,-0.04998607,0.399317436,Subject C,Distracted
0.009867289,0.961740915,-0.547976977,0.021199207,0.430323024,Subject C,Distracted
0.009979529,0.672775613,0.205323352,0.082347132,0.454215596,Subject C,Distracted
0.010088244,0.283556566,0.122926385,0.094627287,0.353379684,Subject C,Distracted
0.01019343,-0.011261316,-0.538670285,0.067303235,0.211060737,Subject C,Distracted
0.010295085,-0.068363478,-1.039176021,0.034756079,0.201683195,Subject C,Distracted
0.010393206,0.045354752,-1.093844029,0.011363954,0.341124687,Subject C,Distracted
0.010487792,0.122446958,-1.029312708,-0.016041491,0.430019905,Subject C,Distracted
0.010578843,0.048371953,-1.119461407,-0.055604398,0.286263212,Subject C,Distracted
0.010666358,-0.078884844,-1.138704071,-0.089538402,-0.011239471,Subject C,Distracted
0.010750338,-0.089043345,-0.77065266,-0.09565904,-0.183031669,Subject C,Distracted
0.010830784,0.041406763,-0.264219251,-0.079865498,-0.064031942,Subject C,Distracted
0.010907702,0.167926529,-0.309749006,-0.071642617,0.203029448,Subject C,Distracted
0.010981101,0.167931149,-1.135909321,-0.086084695,0.341772233,Subject C,Distracted
0.011050986,0.091395612,-2.009384345,-0.103749644,0.279903099,Subject C,Distracted
0.01111736,0.092620705,-1.974643508,-0.096929541,0.23011191,Subject C,Distracted
0.011180232,0.240774212,-1.047112268,-0.069045022,0.404213013,Subject C,Distracted
0.011239624,0.434095057,-0.303689332,-0.056379616,0.718029452,Subject C,Distracted
0.011295564,0.509416674,-0.615865566,-0.087594695,0.871115489,Subject C,Distracted
0.011348068,0.423183795,-1.565234027,-0.146617871,0.715518935,Subject C,Distracted
0.011397132,0.296816447,-1.943933787,-0.183231296,0.448246345,Subject C,Distracted
0.011442759,0.261642837,-1.237118416,-0.164457359,0.370241632,Subject C,Distracted
0.011485001,0.29101592,-0.222617308,-0.110192918,0.507948311,Subject C,Distracted
0.011523948,0.255129088,0.023299764,-0.069728397,0.582662732,Subject C,Distracted
0.011559638,0.138645588,-0.597653354,-0.067478873,0.37248425,Subject C,Distracted
0.011591999,0.099343253,-1.213170268,-0.086273569,0.004161435,Subject C,Distracted
0.011620947,0.250643353,-1.130406572,-0.104707478,-0.193480045,Subject C,Distracted
0.011646593,0.47298344,-0.625723244,-0.130305114,-0.073828461,Subject C,Distracted
0.01166926,0.550061038,-0.474435924,-0.179211939,0.192068566,Subject C,Distracted
0.01168911,0.454311193,-0.92660845,-0.234032045,0.357917851,Subject C,Distracted
0.011705783,0.368758372,-1.42865528,-0.248223665,0.364912855,Subject C,Distracted
0.011718702,0.406053886,-1.385896649,-0.201833756,0.307112525,Subject C,Distracted
0.011728052,0.432072911,-0.959670969,-0.135151427,0.23242983,Subject C,Distracted
0.011735124,0.261802081,-0.858025792,-0.107349879,0.100606223,Subject C,Distracted
0.011740889,-0.036200713,-1.36937138,-0.126852129,-0.079098425,Subject C,Distracted
0.011743987,-0.161576095,-1.914967336,-0.143872801,-0.19171241,Subject C,Distracted
0.01174144,0.061426565,-1.763960949,-0.117239482,-0.15568488,Subject C,Distracted
0.011732977,0.436117561,-0.997375076,-0.069178255,-0.053403739,Subject C,Distracted
0.011723859,0.5834788,-0.437903117,-0.057057983,-0.042518391,Subject C,Distracted
0.011719685,0.360978929,-0.645487501,-0.099938835,-0.145077847,Subject C,Distracted
0.011716215,0.013327958,-1.309216687,-0.154575048,-0.199878404,Subject C,Distracted
0.011698998,-0.117463826,-1.766321048,-0.16850854,-0.066205421,Subject C,Distracted
0.011661702,0.033172778,-1.857203233,-0.139578404,0.171968059,Subject C,Distracted
0.011626112,0.229404255,-1.971607412,-0.108355961,0.284597932,Subject C,Distracted
0.011632667,0.255972136,-2.323265306,-0.100255102,0.185132579,Subject C,Distracted
0.011699498,0.166345763,-2.532494774,-0.096850091,0.054096798,Subject C,Distracted
0.01179386,0.158648568,-2.12959326,-0.071508738,0.101048808,Subject C,Distracted
0.0118559,0.269578311,-1.294444744,-0.03602787,0.259787219,Subject C,Distracted
0.011852875,0.323980324,-0.776397224,-0.0320256,0.257954133,Subject C,Distracted
0.011802911,0.234521023,-1.012661192,-0.076995626,0.027202413,Subject C,Distracted
0.011746444,0.218610331,-1.5712811,-0.135435264,-0.101334259,Subject C,Distracted
0.011705259,0.537892548,-1.69026562,-0.154084442,0.219363645,Subject C,Distracted
0.011673018,1.038073236,-1.270715979,-0.120737517,0.800840121,Subject C,Distracted
0.011635266,1.165297565,-1.030034153,-0.076173199,0.955135075,Subject C,Distracted
0.01158776,0.563907856,-1.548774877,-0.064886637,0.197323228,Subject C,Distracted
0.011536098,-0.479243181,-2.412426288,-0.085265994,-1.19525967,Subject C,Distracted
0.011485539,-1.341834795,-2.619632619,-0.098755971,-2.450292346,Subject C,Distracted
0.011435814,-1.73027529,-1.81466413,-0.081485627,-3.056849536,Subject C,Distracted
0.011383947,-1.866311212,-0.782388221,-0.051964338,-3.127961369,Subject C,Distracted
0.011328585,-2.055823522,-0.551487776,-0.045384928,-3.069337874,Subject C,Distracted
0.011270703,-2.282351326,-1.215821974,-0.070758123,-3.075473466,Subject C,Distracted
0.011211604,-2.311598446,-1.902717521,-0.099990202,-3.020818942,Subject C,Distracted
0.011151483,-2.068168926,-1.85752578,-0.097260635,-2.736237658,Subject C,Distracted
0.011089778,-1.75719081,-1.292743632,-0.056126688,-2.260299734,Subject C,Distracted
0.01102614,-1.607207949,-1.030467204,-0.006662499,-1.795495207,Subject C,Distracted
0.010960749,-1.596100538,-1.455724403,0.014206286,-1.48733221,Subject C,Distracted
0.010893943,-1.507322603,-2.085372952,-0.00278776,-1.314731114,Subject C,Distracted
0.010825857,-1.231455117,-2.245633419,-0.03697528,-1.190032903,Subject C,Distracted
0.010756428,-0.927107003,-1.93937195,-0.065794503,-1.093979295,Subject C,Distracted
0.010685608,-0.837976145,-1.755102364,-0.08539544,-1.059286208,Subject C,Distracted
0.010613464,-0.99141217,-1.984072852,-0.101724942,-1.053494961,Subject C,Distracted
0.010540113,-1.150819514,-2.220250214,-0.114103218,-0.960785487,Subject C,Distracted
0.010465641,-1.082988551,-2.015778044,-0.119919684,-0.719069881,Subject C,Distracted
0.010390087,-0.817039093,-1.609601682,-0.129070786,-0.435257136,Subject C,Distracted
0.010313481,-0.58805179,-1.623769624,-0.155824106,-0.303693617,Subject C,Distracted
0.010235881,-0.550834266,-2.142843119,-0.192604954,-0.396447493,Subject C,Distracted
0.010157355,-0.620656384,-2.526716236,-0.208537373,-0.568974716,Subject C,Distracted
0.010077968,-0.613146507,-2.284814527,-0.187282112,-0.607844211,Subject C,Distracted
0.009997774,-0.473263762,-1.816255691,-0.15674686,-0.464755132,Subject C,Distracted
0.009916822,-0.303151702,-1.938457929,-0.162314407,-0.302079371,Subject C,Distracted
0.009835168,-0.196613351,-2.752796038,-0.209536356,-0.285252401,Subject C,Distracted
0.00975287,-0.135605954,-3.360558688,-0.251787561,-0.371483836,Subject C,Distracted
0.009669987,-0.074714929,-2.909439129,-0.244972004,-0.365118422,Subject C,Distracted
0.009586576,-0.051297509,-1.692853466,-0.200792795,-0.179847988,Subject C,Distracted
0.009502692,-0.133170898,-0.867315168,-0.170288288,0.024790055,Subject C,Distracted
0.00941839,-0.27072813,-1.098993653,-0.181672619,0.023842949,Subject C,Distracted
0.009333726,-0.281881777,-1.833782626,-0.211360381,-0.178051481,Subject C,Distracted
0.009248759,-0.03954062,-2.075796636,-0.218179066,-0.307279127,Subject C,Distracted
0.009163545,0.345373058,-1.640987668,-0.19514128,-0.12462548,Subject C,Distracted
0.00907814,0.591049286,-1.305943266,-0.17898438,0.270226401,Subject C,Distracted
0.008992597,0.530552922,-1.720784972,-0.205647728,0.520355998,Subject C,Distracted
0.008906971,0.301760451,-2.518480896,-0.259981127,0.41364866,Subject C,Distracted
0.008821315,0.198812538,-2.780785504,-0.283362729,0.122383192,Subject C,Distracted
0.008735682,0.333128559,-2.260169519,-0.241542945,-0.020798118,Subject C,Distracted
0.008650125,0.506355167,-1.741568128,-0.172495279,0.074443855,Subject C,Distracted
0.008564693,0.463847556,-2.023209379,-0.145248022,0.186422839,Subject C,Distracted
0.008479436,0.221535203,-2.83865309,-0.174639763,0.112103046,Subject C,Distracted
0.008394405,0.050323352,-3.165910719,-0.20342157,-0.054486039,Subject C,Distracted
0.008309648,0.135718089,-2.535812009,-0.177167775,-0.050886089,Subject C,Distracted
0.008225211,0.352569721,-1.622573877,-0.112081941,0.214396574,Subject C,Distracted
0.008141139,0.441897963,-1.378807182,-0.068690251,0.553347812,Subject C,Distracted
0.008057476,0.350082736,-1.891600354,-0.07457435,0.724551438,Subject C,Distracted
0.007974264,0.286015093,-2.413905117,-0.100839112,0.683171108,Subject C,Distracted
0.007891542,0.428348991,-2.417713565,-0.113028842,0.564488719,Subject C,Distracted
0.00780935,0.673813548,-2.221836928,-0.116319595,0.469648325,Subject C,Distracted
0.007727723,0.762947365,-2.400908015,-0.134297938,0.355008153,Subject C,Distracted
0.007646696,0.621747584,-2.855691261,-0.161565057,0.16316811,Subject C,Distracted
0.007566303,0.467513752,-2.884438919,-0.165544043,-0.012279454,Subject C,Distracted
0.007486579,0.535117856,-2.190259808,-0.135411329,0.003633874,Subject C,Distracted
0.007407555,0.781294553,-1.405814426,-0.103825849,0.2308247,Subject C,Distracted
0.007329261,0.947520273,-1.352316845,-0.107668831,0.46181203,Subject C,Distracted
0.007251727,0.885428876,-2.0123498,-0.143393804,0.480689862,Subject C,Distracted
0.007174981,0.719724743,-2.596000527,-0.17736215,0.309212667,Subject C,Distracted
0.007099052,0.660541289,-2.587677584,-0.191450974,0.175780489,Subject C,Distracted
0.007023963,0.736424691,-2.365315775,-0.199501469,0.250329526,Subject C,Distracted
0.00694974,0.796576308,-2.592094412,-0.217510824,0.465172552,Subject C,Distracted
0.006876405,0.749814482,-3.219295383,-0.23524572,0.62120919,Subject C,Distracted
0.00680398,0.689601478,-3.455728674,-0.230758026,0.626993072,Subject C,Distracted
0.006732489,0.726800093,-2.794492691,-0.206468359,0.567453011,Subject C,Distracted
0.006661951,0.775922763,-1.773701973,-0.194526339,0.534604503,Subject C,Distracted
0.006592386,0.624680368,-1.437206508,-0.220593287,0.471841681,Subject C,Distracted
0.006523814,0.227884277,-2.116181864,-0.269997005,0.261027246,Subject C,Distracted
0.006456254,-0.168390433,-3.03497024,-0.29745208,-0.064406292,Subject C,Distracted
0.006389722,-0.273332305,-3.224595502,-0.272069735,-0.297032211,Subject C,Distracted
0.006324238,-0.082479511,-2.632660588,-0.213032403,-0.293080101,Subject C,Distracted
0.006259816,0.124940767,-2.122169705,-0.178090786,-0.160354799,Subject C,Distracted
0.006196471,0.12225265,-2.408020177,-0.208735389,-0.121736796,Subject C,Distracted
0.006134219,-0.022419197,-3.217806036,-0.283097909,-0.223638927,Subject C,Distracted
0.006073072,-0.092134517,-3.655230934,-0.331539107,-0.291248592,Subject C,Distracted
0.006013042,-0.032292392,-3.288840717,-0.307425591,-0.190845711,Subject C,Distracted
0.005954137,-0.000668348,-2.624941899,-0.236908279,-0.018318506,Subject C,Distracted
0.005896365,-0.109374845,-2.414027697,-0.188114596,0.058134841,Subject C,Distracted
0.005839732,-0.23865077,-2.718419825,-0.195692907,0.063976838,Subject C,Distracted
0.005784242,-0.18746158,-2.945554481,-0.231663903,0.191108363,Subject C,Distracted
0.005729896,0.050504152,-2.748654957,-0.251575726,0.498323185,Subject C,Distracted
0.005676694,0.265113808,-2.532722331,-0.248504146,0.765025279,Subject C,Distracted
0.005624632,0.29022417,-2.854409774,-0.246919654,0.733549443,Subject C,Distracted
0.005573707,0.199627411,-3.5475721,-0.256302132,0.4432311,Subject C,Distracted
0.005523915,0.188269403,-3.831620717,-0.254109727,0.208631743,Subject C,Distracted
0.005475248,0.307626567,-3.331067141,-0.219477008,0.244129428,Subject C,Distracted
0.005427699,0.407821133,-2.633418361,-0.168539833,0.407270545,Subject C,Distracted
0.005381259,0.354332056,-2.564715652,-0.141491641,0.396744997,Subject C,Distracted
0.005335918,0.219861159,-3.097333208,-0.155495842,0.154836369,Subject C,Distracted
0.005291663,0.190346941,-3.36659833,-0.18395628,-0.048905669,Subject C,Distracted
0.005248481,0.311451609,-2.815188583,-0.191247376,0.03530559,Subject C,Distracted
0.005206355,0.422018626,-1.941813689,-0.179539839,0.314515998,Subject C,Distracted
0.00516527,0.381127099,-1.646355452,-0.186110146,0.482299687,Subject C,Distracted
0.005125206,0.294142236,-2.069846018,-0.233809351,0.430198863,Subject C,Distracted
0.005086146,0.403697881,-2.499782837,-0.299272886,0.38634779,Subject C,Distracted
0.005048069,0.737542722,-2.423997621,-0.338534408,0.58420389,Subject C,Distracted
0.005010954,0.979603228,-2.234863425,-0.333206769,0.906915578,Subject C,Distracted
0.004974778,0.801992827,-2.59338714,-0.299121157,1.003428771,Subject C,Distracted
0.00493952,0.2830053,-3.355178338,-0.258375334,0.741235752,Subject C,Distracted
0.004905154,-0.132478397,-3.612056977,-0.222430643,0.406030266,Subject C,Distracted
0.004871656,-0.112823648,-2.880678084,-0.201909911,0.38784274,Subject C,Distracted
0.004838999,0.215932114,-1.849980693,-0.210257429,0.74005089,Subject C,Distracted
0.004807155,0.458592786,-1.623071116,-0.245027046,1.133926499,Subject C,Distracted
0.004776094,0.414687672,-2.373619556,-0.278114795,1.243938754,Subject C,Distracted
0.004745786,0.26134746,-3.132068669,-0.280585773,1.101702891,Subject C,Distracted
0.004716198,0.279372929,-2.983255978,-0.256115021,1.011446221,Subject C,Distracted
0.004687295,0.497788484,-2.168924535,-0.239359668,1.149389005,Subject C,Distracted
0.004659042,0.688158107,-1.727015702,-0.257933813,1.347206316,Subject C,Distracted
0.004631403,0.674847366,-2.158058978,-0.301441872,1.31951699,Subject C,Distracted
0.00460434,0.546395935,-2.821756491,-0.333393979,1.031977925,Subject C,Distracted
0.004577816,0.513438938,-2.810895161,-0.333471662,0.739830307,Subject C,Distracted
0.00455179,0.620071749,-2.151193426,-0.321860468,0.666426386,Subject C,Distracted
0.004526224,0.688177728,-1.76523094,-0.333265913,0.751721775,Subject C,Distracted
0.004501076,0.56028476,-2.254529542,-0.3664482,0.779187677,Subject C,Distracted
0.004476307,0.319571114,-3.09782956,-0.373928688,0.673488163,Subject C,Distracted
0.004451873,0.198984997,-3.302519082,-0.316242203,0.560550513,Subject C,Distracted
0.004427731,0.295823559,-2.641023855,-0.219790592,0.543375718,Subject C,Distracted
0.004403839,0.456718129,-1.895792665,-0.160180825,0.538131807,Subject C,Distracted
0.004380151,0.472481173,-1.875142876,-0.181290567,0.404121268,Subject C,Distracted
0.004356625,0.328635777,-2.482129341,-0.244824831,0.1773576,Subject C,Distracted
0.004333215,0.206748289,-2.934018518,-0.273274599,0.069331734,Subject C,Distracted
0.004309873,0.25982522,-2.76610553,-0.237290107,0.205737712,Subject C,Distracted
0.004286554,0.446915736,-2.352621856,-0.183985688,0.437762068,Subject C,Distracted
0.004263214,0.602504701,-2.334787198,-0.174492978,0.492689898,Subject C,Distracted
0.004239808,0.622433271,-2.73440799,-0.211170972,0.302602369,Subject C,Distracted
0.004216289,0.539631806,-2.930726927,-0.245169211,0.097462043,Subject C,Distracted
0.004192612,0.434496279,-2.518131903,-0.248276561,0.126676458,Subject C,Distracted
0.004168729,0.334425601,-1.865615652,-0.250145982,0.353878802,Subject C,Distracted
