timestamps,TP9,AF7,AF8,TP10,Subject,Emotion
0.002658961,2.634124227,0.031941279,-0.468909392,2.789223669,Subject C,Distracted
0.002945423,2.872197698,2.020085615,-0.403721867,3.086178679,Subject C,Distracted
0.003231316,3.144835711,2.719836021,-0.367464213,3.468111948,Subject C,Distracted
0.003516513,3.232113638,1.401728909,-0.390084443,3.669334925,Subject C,Distracted
0.003800889,3.142523617,-0.437512761,-0.441106312,3.573894823,Subject C,Distracted
0.004084324,3.015358738,-0.989592773,-0.471385166,3.323997849,Subject C,Distracted
0.004366698,2.904704988,-0.181856737,-0.464237163,3.147677944,Subject C,Distracted
0.004647897,2.751778489,0.593417952,-0.440126244,3.117032092,Subject C,Distracted
0.004927807,2.542316336,0.457222368,-0.421671887,3.117071313,Subject C,Distracted
0.005206317,2.38257747,0.055151823,-0.409574763,3.023907357,Subject C,Distracted
0.005483319,2.368275821,0.403656806,-0.395899298,2.84106096,Subject C,Distracted
0.005758712,2.436311543,1.307080121,-0.386010046,2.647185025,Subject C,Distracted
0.006032393,2.422826473,1.568428027,-0.390693204,2.478077464,Subject C,Distracted
0.006304266,2.266481277,0.690714529,-0.39909131,2.320851193,Subject C,Distracted
0.006574234,2.093846613,-0.313658752,-0.378995254,2.20408071,Subject C,Distracted
0.006842206,2.06778518,-0.209725889,-0.31625972,2.212760852,Subject C,Distracted
0.007108093,2.178800509,0.73917622,-0.243844768,2.358233432,Subject C,Distracted
0.007371807,2.242365415,0.994674509,-0.212939899,2.477337273,Subject C,Distracted
0.007633264,2.119129779,-0.20266757,-0.23211742,2.369168621,Subject C,Distracted
0.007892381,1.889961882,-1.593349423,-0.251514937,2.066003544,Subject C,Distracted
0.008149078,1.764176454,-1.27127563,-0.221067491,1.871876501,Subject C,Distracted
0.00840328,1.835537461,0.906854986,-0.155319818,2.038502142,Subject C,Distracted
0.008654914,1.989172111,2.981168439,-0.11925965,2.446963216,Subject C,Distracted
0.008903908,2.060018736,3.170550149,-0.145773896,2.720246133,Subject C,Distracted
0.009150197,2.027618849,1.90824698,-0.187257696,2.655961878,Subject C,Distracted
0.009393719,2.004441784,1.055593295,-0.168063284,2.438646958,Subject C,Distracted
0.009634414,2.049557337,1.404150299,-0.079244372,2.366840672,Subject C,Distracted
0.00987223,2.066854018,1.779681531,0.001869361,2.460503989,Subject C,Distracted
0.010107113,1.938510358,0.877309856,-0.001746414,2.45800494,Subject C,Distracted
0.010339013,1.716681856,-0.71342704,-0.075436696,2.185665329,Subject C,Distracted
0.010567885,1.583688066,-1.102282088,-0.130015113,1.802062481,Subject C,Distracted
0.010793685,1.601318865,0.412421347,-0.107921532,1.607833641,Subject C,Distracted
0.011016372,1.603965693,2.279961943,-0.046495772,1.683177243,Subject C,Distracted
0.011235908,1.425750554,2.525557832,-0.02235848,1.813271266,Subject C,Distracted
0.011452255,1.164078526,1.136895053,-0.053359886,1.767224703,Subject C,Distracted
0.01166538,1.086535872,-0.018868229,-0.083840672,1.556005868,Subject C,Distracted
0.011875251,1.274527138,0.428999845,-0.064891096,1.366414073,Subject C,Distracted
0.012081838,1.484871179,1.716817069,-0.019067408,1.308398138,Subject C,Distracted
0.012285114,1.432941364,2.028412063,-0.006727104,1.318380949,Subject C,Distracted
0.012485054,1.137604098,0.824282337,-0.044045825,1.300363232,Subject C,Distracted
0.012681636,0.888402762,-0.536467458,-0.083031022,1.267791729,Subject C,Distracted
0.012874841,0.885559216,-0.58175413,-0.077696144,1.294090822,Subject C,Distracted
0.013064652,1.006123455,0.443798871,-0.046473895,1.366238033,Subject C,Distracted
0.013251053,0.974246956,1.042767071,-0.047597303,1.359184759,Subject C,Distracted
0.013434032,0.716367335,0.508753966,-0.100011285,1.181776057,Subject C,Distracted
0.013613575,0.469003655,-0.223982759,-0.155104601,0.917171575,Subject C,Distracted
0.013789674,0.504817841,-0.015036838,-0.157779497,0.762488693,Subject C,Distracted
0.013962321,0.795041664,0.81877526,-0.11544151,0.805786436,Subject C,Distracted
0.014131509,1.015286335,0.951014301,-0.081906534,0.91048321,Subject C,Distracted
0.014297231,0.907594166,-0.028862174,-0.080463085,0.883048327,Subject C,Distracted
0.014459482,0.575205837,-0.942234611,-0.07645601,0.731298804,Subject C,Distracted
0.01461826,0.34854701,-0.610499468,-0.039033885,0.663276259,Subject C,Distracted
0.014773565,0.385473247,0.463823611,-2.34e-05,0.80301804,Subject C,Distracted
0.0149254,0.505441535,0.70767092,-0.017720225,0.996785187,Subject C,Distracted
0.015073766,0.454542734,-0.356305627,-0.091138944,0.986639448,Subject C,Distracted
0.01521866,0.243320238,-1.321540584,-0.147183233,0.742455483,Subject C,Distracted
0.015360084,0.122627569,-0.649469749,-0.125232278,0.520023438,Subject C,Distracted
0.015498054,0.24897906,1.277754407,-0.049348314,0.55745382,Subject C,Distracted
0.015632589,0.485578352,2.510904363,0.004550608,0.787389501,Subject C,Distracted
0.015763695,0.586832592,1.890864375,-0.000432462,0.923785157,Subject C,Distracted
0.015891355,0.507291764,0.416450771,-0.030003495,0.806563724,Subject C,Distracted
0.016015557,0.426623857,-0.083591496,-0.037322082,0.573672491,Subject C,Distracted
0.016136339,0.472863327,0.758310904,-0.027708358,0.469973236,Subject C,Distracted
0.016253771,0.531360484,1.502835054,-0.044953953,0.559565417,Subject C,Distracted
0.016367873,0.407415032,0.887763087,-0.101090799,0.693134632,Subject C,Distracted
0.01647855,0.12603355,-0.451909545,-0.144781804,0.724187484,Subject C,Distracted
0.016585697,-0.047461696,-0.767811567,-0.114580239,0.663621858,Subject C,Distracted
0.016689403,0.079061195,0.516270993,-0.014853782,0.595771409,Subject C,Distracted
0.016789967,0.370599249,1.992299638,0.080804061,0.527362847,Subject C,Distracted
0.016887527,0.503121939,2.017555249,0.107565245,0.405439655,Subject C,Distracted
0.016981694,0.330503387,0.770333344,0.076593766,0.257647138,Subject C,Distracted
0.017071867,0.029537848,-0.064386217,0.051410484,0.214475247,Subject C,Distracted
0.017158202,-0.141343339,0.449420279,0.066138219,0.344558865,Subject C,Distracted
0.017241962,-0.146089264,1.287556208,0.088748864,0.516167768,Subject C,Distracted
0.017324086,-0.151487099,0.893165621,0.071001806,0.500627605,Subject C,Distracted
0.01740318,-0.240471105,-0.673573099,0.015692426,0.239350217,Subject C,Distracted
0.017476232,-0.274780394,-1.741283029,-0.026043775,-0.040134278,Subject C,Distracted
0.017542937,-0.105670167,-1.185890172,-0.021471524,-0.040305329,Subject C,Distracted
0.017608519,0.169727165,0.139761531,0.000959445,0.268050606,Subject C,Distracted
0.01767854,0.284603574,0.601378156,-0.011035076,0.581579045,Subject C,Distracted
0.017748722,0.124905965,-0.034640035,-0.064042151,0.581349663,Subject C,Distracted
0.017804576,-0.135012374,-0.381640334,-0.108172082,0.28448834,Subject C,Distracted
0.017839727,-0.258781088,0.574151556,-0.099535891,0.020257211,Subject C,Distracted
0.017875923,-0.221531899,2.024378917,-0.053671971,0.052710466,Subject C,Distracted
0.017953559,-0.176392502,2.378461258,-0.021497902,0.292940152,Subject C,Distracted
0.018090721,-0.202983231,1.315472377,-0.024379779,0.432650214,Subject C,Distracted
0.018254623,-0.21180247,0.095665029,-0.035561755,0.310223566,Subject C,Distracted
0.018385367,-0.117899332,-0.158591001,-0.026390996,0.049498329,Subject C,Distracted
0.018450164,0.001443504,0.174350588,-0.008264068,-0.155247131,Subject C,Distracted
0.018467096,0.006102531,-0.033697025,-0.01314333,-0.264082166,Subject C,Distracted
0.018476552,-0.101685058,-0.925745748,-0.043861227,-0.331885758,Subject C,Distracted
0.018500269,-0.167866416,-1.340213138,-0.066454419,-0.327673072,Subject C,Distracted
0.018531864,-0.086158495,-0.370479008,-0.055946945,-0.156634667,Subject C,Distracted
0.018556834,0.067994163,1.26756589,-0.031130372,0.144954806,Subject C,Distracted
0.018570887,0.141120085,1.93108946,-0.028964548,0.370112121,Subject C,Distracted
0.018579566,0.097975933,1.017563236,-0.05264982,0.369644616,Subject C,Distracted
0.018588081,0.058938043,-0.266899003,-0.06367889,0.257080475,Subject C,Distracted
0.018596104,0.139122885,-0.363160524,-0.030658573,0.292712078,Subject C,Distracted
0.018600603,0.295108828,0.715696101,0.025763533,0.55616848,Subject C,Distracted
0.018600165,0.368839545,1.412367034,0.049619743,0.804725355,Subject C,Distracted
0.018595704,0.273677542,0.653661928,0.011768776,0.718817287,Subject C,Distracted
0.018588462,0.097925921,-0.668693725,-0.055283376,0.277042239,Subject C,Distracted
0.018578569,0.006519386,-0.77240031,-0.093516022,-0.181536302,Subject C,Distracted
0.018565399,0.060666001,0.642384657,-0.085621136,-0.309311206,Subject C,Distracted
0.01854854,0.161874116,1.839548831,-0.070983385,-0.123651526,Subject C,Distracted
0.018528106,0.176236705,1.20908898,-0.090693545,0.033308291,Subject C,Distracted
0.018504367,0.088008761,-0.582668065,-0.130969602,-0.099788492,Subject C,Distracted
0.018477389,0.000463101,-1.325719496,-0.138479006,-0.40793583,Subject C,Distracted
0.018447042,-0.011882673,-0.019466183,-0.088485947,-0.55115016,Subject C,Distracted
0.018413207,-0.005791302,1.883792766,-0.017494155,-0.370738133,Subject C,Distracted
0.01837588,-0.083180462,2.300705526,0.021244548,-0.060532614,Subject C,Distracted
0.01833511,-0.220625339,1.028076908,0.020405422,0.094677508,Subject C,Distracted
0.01829091,-0.24983651,-0.194123231,0.018466329,0.067987189,Subject C,Distracted
0.018243247,-0.048395253,-0.006386407,0.040021327,0.075217738,Subject C,Distracted
0.018192083,0.279912546,0.905397712,0.059723932,0.235701771,Subject C,Distracted
0.018137404,0.476534063,0.909193184,0.041245186,0.384378076,Subject C,Distracted
0.018079213,0.3967071,-0.243803428,-0.002975588,0.293325196,Subject C,Distracted
0.01801751,0.161516503,-1.028351335,-0.019439515,-0.002312619,Subject C,Distracted
0.017952283,0.003712903,-0.232111748,0.016282318,-0.213590507,Subject C,Distracted
0.017883524,-0.000343251,1.343361626,0.064091644,-0.12875907,Subject C,Distracted
0.017811225,0.026492186,1.887285992,0.070157331,0.155506727,Subject C,Distracted
0.017735386,-0.022556874,0.893989069,0.035162934,0.368741882,Subject C,Distracted
0.017656007,-0.080156941,-0.299638794,0.008729607,0.370633862,Subject C,Distracted
0.017573083,-0.019924647,-0.328289789,0.021887068,0.259826727,Subject C,Distracted
0.01748661,0.136700729,0.544900266,0.049803212,0.202165751,Subject C,Distracted
0.017396587,0.227538598,1.012366165,0.04988865,0.224180789,Subject C,Distracted
0.017303012,0.168281973,0.558792321,0.019403325,0.216852496,Subject C,Distracted
0.017205885,0.082182439,0.042586347,-0.003702497,0.110708003,Subject C,Distracted
0.017105208,0.152434873,0.36406688,0.005677475,-0.021974464,Subject C,Distracted
0.017000982,0.374210883,1.130164183,0.025506434,-0.067363021,Subject C,Distracted
0.016893208,0.529318715,1.160355852,0.018854968,-0.02364567,Subject C,Distracted
0.01678189,0.439584581,0.17276743,-0.009960077,0.014469222,Subject C,Distracted
0.016667032,0.1923096,-0.667988291,-0.01533546,0.018986319,Subject C,Distracted
0.01654864,0.039135619,-0.236559883,0.02564542,0.088798336,Subject C,Distracted
0.016426719,0.083239338,0.92065915,0.070998216,0.293901542,Subject C,Distracted
0.016301276,0.165534062,1.1127938,0.061000975,0.526730971,Subject C,Distracted
0.016172316,0.103086164,-0.282615769,0.001300417,0.605160151,Subject C,Distracted
0.01603985,-0.054318312,-1.815071468,-0.032380561,0.503916566,Subject C,Distracted
0.015903885,-0.106024006,-1.687596323,0.014184619,0.379328964,Subject C,Distracted
0.015764434,0.005975055,-0.115150899,0.101014927,0.342576061,Subject C,Distracted
0.015621506,0.111717115,0.837084249,0.139359022,0.312697595,Subject C,Distracted
0.015475117,0.05142303,-0.103080819,0.101021383,0.174446191,Subject C,Distracted
0.015325283,-0.102545989,-1.692191844,0.050612619,0.010861598,Subject C,Distracted
0.015172022,-0.15180163,-1.695254117,0.059739878,0.039180188,Subject C,Distracted
0.015015351,-0.056779681,0.268396458,0.115739499,0.295173021,Subject C,Distracted
0.014855292,0.003749005,2.216716527,0.140679723,0.511416864,Subject C,Distracted
0.014691868,-0.107475879,2.208198153,0.091589041,0.409567395,Subject C,Distracted
0.014525105,-0.266911074,0.553026962,0.014251165,0.051923495,Subject C,Distracted
0.014355029,-0.233128699,-0.798793861,-0.011877955,-0.21258706,Subject C,Distracted
0.014181672,0.020861445,-0.675654422,0.033603237,-0.149627544,Subject C,Distracted
0.014005065,0.234682488,0.156008328,0.092099187,0.111349389,Subject C,Distracted
0.013825244,0.166742642,0.321350141,0.098308896,0.265180061,Subject C,Distracted
0.013642247,-0.101898146,-0.273019637,0.055683941,0.191937539,Subject C,Distracted
0.013456114,-0.25645948,-0.454307069,0.025993398,0.051138005,Subject C,Distracted
0.013266888,-0.12573161,0.470557392,0.050525978,0.039742957,Subject C,Distracted
0.013074613,0.120483962,1.698329397,0.102512297,0.148778534,Subject C,Distracted
0.012879333,0.196070091,1.998624934,0.125816418,0.204072421,Subject C,Distracted
0.012681097,0.056184566,1.329896964,0.104037475,0.097138944,Subject C,Distracted
0.012479956,-0.066130008,0.783690794,0.071799327,-0.094531057,Subject C,Distracted
0.012275959,0.020176666,1.011397084,0.062496549,-0.216594203,Subject C,Distracted
0.012069159,0.212302779,1.3590932,0.068443657,-0.209533446,Subject C,Distracted
0.011859608,0.25328173,0.893855209,0.064185653,-0.138367415,Subject C,Distracted
0.011647363,0.069242908,-0.146517736,0.053600396,-0.078967737,Subject C,Distracted
0.011432479,-0.137020267,-0.539999802,0.07077881,-0.024696293,Subject C,Distracted
0.011215012,-0.147703666,0.303935338,0.131563075,0.075853727,Subject C,Distracted
0.010995019,-0.000485138,1.484196461,0.202630534,0.213922913,Subject C,Distracted
0.010772556,0.073215408,1.678984598,0.233035808,0.291720486,Subject C,Distracted
0.010547683,-0.055985593,0.766991162,0.21080111,0.216604665,Subject C,Distracted
0.010320458,-0.270303491,-0.06473692,0.174136343,0.0148788,Subject C,Distracted
0.01009094,-0.373167717,0.165173021,0.163741898,-0.172607947,Subject C,Distracted
0.009859188,-0.327607447,1.002198509,0.175913873,-0.223167513,Subject C,Distracted
0.009625262,-0.261233149,1.144318815,0.175081419,-0.147848897,Subject C,Distracted
0.009389227,-0.26342166,0.133359274,0.148909893,-0.056426545,Subject C,Distracted
0.009151146,-0.264924915,-0.976475473,0.131905765,-0.022237903,Subject C,Distracted
0.008911084,-0.153582055,-0.878783713,0.161361791,-0.011350481,Subject C,Distracted
0.008669108,0.05291263,0.340225359,0.220253148,0.06430951,Subject C,Distracted
0.008425284,0.223302219,1.276795678,0.246229821,0.256569587,Subject C,Distracted
0.008179679,0.281670182,0.936624133,0.204061469,0.532891214,Subject C,Distracted
0.007932362,0.277025326,-0.080473381,0.132859852,0.777480499,Subject C,Distracted
0.007683402,0.263927641,-0.41727741,0.104474421,0.841370231,Subject C,Distracted
0.007432866,0.190916329,0.298514297,0.139796955,0.637352774,Subject C,Distracted
0.007180823,-0.020820815,1.024268521,0.185671861,0.225724676,Subject C,Distracted
0.006927343,-0.310600646,0.684297079,0.181166307,-0.180339,Subject C,Distracted
0.006672494,-0.469899652,-0.425359541,0.129321553,-0.321315626,Subject C,Distracted
0.006416345,-0.344248853,-0.996588437,0.085573287,-0.080145679,Subject C,Distracted
0.006158963,-0.019307922,-0.359401678,0.084267034,0.373974304,Subject C,Distracted
0.005900416,0.239550934,0.708702466,0.102691512,0.672411394,Subject C,Distracted
0.005640771,0.245990918,1.047973839,0.104617988,0.578886797,Subject C,Distracted
0.005380097,0.070749911,0.614217417,0.095184758,0.255645974,Subject C,Distracted
0.005118461,-0.054780088,0.384818287,0.107901553,0.115841266,Subject C,Distracted
0.004855928,0.000539667,0.825743925,0.144597714,0.359688897,Subject C,Distracted
0.004592565,0.134188607,1.112854599,0.159397975,0.723374846,Subject C,Distracted
0.004328439,0.150579655,0.305352509,0.118249831,0.772325388,Subject C,Distracted
0.004063616,0.005028774,-1.130819057,0.055485614,0.414405513,Subject C,Distracted
0.003798162,-0.144568639,-1.706980684,0.042971788,0.017520434,Subject C,Distracted
0.00353214,-0.140601716,-0.853938952,0.102216186,-0.014028846,Subject C,Distracted
0.003265615,-0.020351312,0.215035532,0.172580738,0.304293077,Subject C,Distracted
0.00299865,0.054120436,0.007280846,0.182084199,0.584857676,Subject C,Distracted
0.002731311,0.028715852,-1.308116582,0.13429222,0.535805046,Subject C,Distracted
0.002463659,0.018149582,-2.087390647,0.101768307,0.272327585,Subject C,Distracted
0.002195757,0.102062177,-1.291464977,0.135060169,0.120451534,Subject C,Distracted
0.001927666,0.160982266,0.214159572,0.201157209,0.201543431,Subject C,Distracted
0.001659448,0.024175447,0.740180056,0.224487003,0.32919115,Subject C,Distracted
0.001391164,-0.255605584,-0.180113263,0.176156023,0.309186299,Subject C,Distracted
0.001122875,-0.410433604,-1.310301868,0.10347722,0.208159874,Subject C,Distracted
0.000854643,-0.282595905,-1.324268665,0.069121045,0.237317589,Subject C,Distracted
0.000586528,-0.038345707,-0.469838577,0.077932827,0.439005551,Subject C,Distracted
0.000318591,0.030410269,-0.193265697,0.080761609,0.614036446,Subject C,Distracted
5.09e-05,-0.136573327,-1.193643728,0.046067654,0.576477989,Subject C,Distracted
-0.0002165,-0.312959765,-2.428750708,0.002695728,0.384148166,Subject C,Distracted
-0.000483531,-0.288094698,-2.440060917,-0.003453125,0.25246825,Subject C,Distracted
-0.000750137,-0.124443092,-1.29621763,0.023500429,0.288157794,Subject C,Distracted
-0.001016256,-0.049686991,-0.52400897,0.03568805,0.382863803,Subject C,Distracted
-0.001281824,-0.14522913,-1.063943336,0.013169161,0.367019005,Subject C,Distracted
-0.001546781,-0.244899159,-2.014853841,-0.002830081,0.211985623,Subject C,Distracted
-0.001811066,-0.169555669,-1.869106205,0.035617131,0.053331217,Subject C,Distracted
-0.00207462,0.019487915,-0.53018947,0.116566892,0.033372368,Subject C,Distracted
-0.002337381,0.088153691,0.57893985,0.179099646,0.148290086,Subject C,Distracted
-0.002599289,-0.061188773,0.341807833,0.183002194,0.263948342,Subject C,Distracted
-0.002860285,-0.236266677,-0.753673604,0.147546639,0.269931677,Subject C,Distracted
-0.003120308,-0.169319833,-1.408259234,0.120895317,0.181601535,Subject C,Distracted
-0.0033793,0.146415949,-1.1878331,0.127574271,0.079026001,Subject C,Distracted
-0.003637202,0.415319465,-0.884680637,0.154579152,-0.001515927,Subject C,Distracted
-0.003893957,0.369552935,-1.218577804,0.180454903,-0.061218787,Subject C,Distracted
-0.004149509,0.083445667,-1.730314543,0.202495845,-0.061102369,Subject C,Distracted
-0.0044038,-0.120558661,-1.413930793,0.228581445,0.060341135,Subject C,Distracted
-0.004656777,-0.06569485,-0.219102893,0.252423557,0.272194548,Subject C,Distracted
-0.004908383,0.080289208,0.699091142,0.25400569,0.420658873,Subject C,Distracted
-0.005158562,0.048827897,0.408981162,0.22787221,0.368806266,Subject C,Distracted
-0.005407258,-0.168153805,-0.607506723,0.196513931,0.155400975,Subject C,Distracted
-0.005654417,-0.308973149,-1.137347749,0.183963887,-0.022022916,Subject C,Distracted
-0.005899983,-0.185004071,-0.867567051,0.184235186,0.003833152,Subject C,Distracted
-0.006143902,0.079121724,-0.721771905,0.172029288,0.205301169,Subject C,Distracted
-0.006386119,0.210050024,-1.433384569,0.14328135,0.392792342,Subject C,Distracted
-0.006626579,0.124229716,-2.355676363,0.125395406,0.413339182,Subject C,Distracted
-0.00686523,0.007076096,-2.223107684,0.137864097,0.304457205,Subject C,Distracted
-0.00710202,0.06111191,-0.873125556,0.158668243,0.233390499,Subject C,Distracted
-0.007336897,0.265763438,0.419571243,0.148112838,0.289717636,Subject C,Distracted
-0.007569812,0.432334157,0.478482981,0.101675679,0.378055545,Subject C,Distracted
-0.007800717,0.440983498,-0.355985251,0.06143783,0.343701116,Subject C,Distracted
-0.008029564,0.349091781,-0.711618315,0.067924679,0.171530091,Subject C,Distracted
-0.008256309,0.267831533,0.065995966,0.10884516,0.001430784,Subject C,Distracted
-0.008480907,0.201470356,1.067712265,0.127224295,-0.05463829,Subject C,Distracted
-0.008703314,0.065357384,0.928982192,0.084525211,-0.043087188,Subject C,Distracted
-0.008923491,-0.15354139,-0.433503116,0.00864912,-0.070516079,Subject C,Distracted
-0.0091414,-0.330687367,-1.613462021,-0.032470501,-0.122332827,Subject C,Distracted
-0.009357004,-0.349699726,-1.368269671,-0.006729628,-0.06811283,Subject C,Distracted
-0.009570268,-0.26900451,-0.09939679,0.045012034,0.13729908,Subject C,Distracted
-0.009781159,-0.253944147,0.711645124,0.057350666,0.345731492,Subject C,Distracted
-0.009989646,-0.340786463,0.345936726,0.01826832,0.39067981,Subject C,Distracted
-0.010195698,-0.369300408,-0.427936934,-0.016342277,0.332362027,Subject C,Distracted
-0.010399287,-0.207678599,-0.56068839,0.011330902,0.407174021,Subject C,Distracted
-0.010600383,0.033297313,-0.107933548,0.091825523,0.692192,Subject C,Distracted
-0.010798961,0.113903523,0.024406444,0.155255008,0.932834443,Subject C,Distracted
-0.010994996,-0.021259677,-0.538310356,0.145730783,0.823873431,Subject C,Distracted
-0.011188465,-0.146577501,-1.092037109,0.079251875,0.412122386,Subject C,Distracted
