timestamps,TP9,AF7,AF8,TP10,Subject,Emotion
-0.028311921,0.010665415,0.308180462,-1.627669462,0.461193303,Subject A,Distracted
-0.028416098,-0.132608946,0.317380755,-1.933801743,0.2007294,Subject A,Distracted
-0.028514759,0.004617855,0.280278074,-0.217462984,0.029168979,Subject A,Distracted
-0.02860789,0.147399534,0.23526255,1.481082108,0.028702046,Subject A,Distracted
-0.028695482,0.001496495,0.210475697,1.107037502,0.131765856,Subject A,Distracted
-0.028777523,-0.336478928,0.189584923,-0.763619406,0.214549018,Subject A,Distracted
-0.028854002,-0.502321293,0.146010286,-1.783978849,0.219769444,Subject A,Distracted
-0.028924908,-0.328039553,0.102879694,-0.922727509,0.203511957,Subject A,Distracted
-0.028990227,-0.01007308,0.128395973,0.358383213,0.284880006,Subject A,Distracted
-0.029049947,0.208285307,0.253622126,0.256219409,0.530435385,Subject A,Distracted
-0.029104054,0.344945232,0.409851984,-0.91782197,0.848074875,Subject A,Distracted
-0.029152536,0.538963825,0.475731239,-1.260530651,1.00539961,Subject A,Distracted
-0.02919538,0.712544928,0.393252062,0.017360484,0.814171615,Subject A,Distracted
-0.029232576,0.578853316,0.220267517,1.398063557,0.323707219,Subject A,Distracted
-0.029264113,0.02568291,0.061496494,1.024880477,-0.204758114,Subject A,Distracted
-0.029289981,-0.65111662,-0.032141069,-0.74572584,-0.539770359,Subject A,Distracted
-0.029310175,-1.015482055,-0.079910296,-1.643532565,-0.671359522,Subject A,Distracted
-0.029324688,-0.9642293,-0.109122941,-0.39088988,-0.759311124,Subject A,Distracted
-0.029333516,-0.829049847,-0.114455706,1.530299917,-0.942946858,Subject A,Distracted
-0.029336656,-0.960917806,-0.086085859,1.678027348,-1.228094581,Subject A,Distracted
-0.029334107,-1.284530574,-0.048783084,-0.186798327,-1.508440482,Subject A,Distracted
-0.02932587,-1.383393711,-0.046390123,-1.700792179,-1.644107854,Subject A,Distracted
-0.029311946,-1.042861912,-0.090888618,-0.885968534,-1.550599988,Subject A,Distracted
-0.029292338,-0.573166097,-0.144564033,1.312952068,-1.276851218,Subject A,Distracted
-0.02926705,-0.462556819,-0.15727067,2.250934061,-0.99458366,Subject A,Distracted
-0.029236087,-0.768013682,-0.113508775,0.964408084,-0.8574052,Subject A,Distracted
-0.029199455,-1.036314626,-0.042558667,-0.686073124,-0.860827687,Subject A,Distracted
-0.029157161,-0.886072669,0.007682302,-0.524375307,-0.878827722,Subject A,Distracted
-0.029109214,-0.501022792,0.005446036,1.127469097,-0.835188513,Subject A,Distracted
-0.029055623,-0.379322468,-0.043076188,1.97242405,-0.78231007,Subject A,Distracted
-0.028996401,-0.664823501,-0.098455401,0.819478307,-0.793093783,Subject A,Distracted
-0.028931559,-0.949855306,-0.121649598,-0.855501459,-0.833734367,Subject A,Distracted
-0.028861114,-0.817092523,-0.108725827,-0.890146857,-0.797746731,Subject A,Distracted
-0.028785081,-0.402312352,-0.087076288,0.68733653,-0.646690523,Subject A,Distracted
-0.028703479,-0.225580743,-0.077742524,1.711083033,-0.464900104,Subject A,Distracted
-0.02861633,-0.502787452,-0.074566972,0.815020328,-0.36168854,Subject A,Distracted
-0.028523657,-0.838404835,-0.063690999,-0.669730018,-0.347934374,Subject A,Distracted
-0.028425485,-0.710774951,-0.046245104,-0.475087291,-0.331567344,Subject A,Distracted
-0.028321842,-0.134683229,-0.030527343,1.475620344,-0.225816044,Subject A,Distracted
-0.028212757,0.342986795,-0.015835774,2.815982905,-0.04107804,Subject A,Distracted
-0.028098262,0.301495677,2.25e-05,1.810042875,0.133235672,Subject A,Distracted
-0.02797839,-0.07731651,0.005631636,-0.326724535,0.2212766,Subject A,Distracted
-0.027853177,-0.287374844,-0.014019375,-0.997763915,0.222849103,Subject A,Distracted
-0.027722658,-0.131837377,-0.053549969,0.384317351,0.192395002,Subject A,Distracted
-0.027586875,0.105148667,-0.086778842,1.702234046,0.178901245,Subject A,Distracted
-0.027445867,0.122907975,-0.092333169,1.038329496,0.198389016,Subject A,Distracted
-0.027299678,0.042912474,-0.07074672,-0.717232124,0.249146297,Subject A,Distracted
-0.027148352,0.220743473,-0.034712486,-1.039458189,0.323433156,Subject A,Distracted
-0.026991936,0.697656542,0.008459551,0.83720568,0.396249305,Subject A,Distracted
-0.02683048,1.06735938,0.058829053,2.81784412,0.429281019,Subject A,Distracted
-0.026664036,0.980259738,0.113012154,2.607503564,0.41450521,Subject A,Distracted
-0.026492656,0.622149839,0.158746508,0.636133684,0.406390639,Subject A,Distracted
-0.026316399,0.501734684,0.180776416,-0.557024297,0.472388614,Subject A,Distracted
-0.026135324,0.797192647,0.168089187,0.381871255,0.590394915,Subject A,Distracted
-0.025949491,1.119921455,0.116934806,1.950406545,0.628586392,Subject A,Distracted
-0.025758966,1.020887005,0.036258125,1.849181042,0.483249906,Subject A,Distracted
-0.025563814,0.585870386,-0.044328961,0.031742724,0.242178277,Subject A,Distracted
-0.025364105,0.337759719,-0.081411167,-1.220404887,0.149747791,Subject A,Distracted
-0.02515991,0.564339078,-0.049056774,-0.276834536,0.357624806,Subject A,Distracted
-0.024951302,0.943030964,0.031697086,1.69068328,0.735495688,Subject A,Distracted
-0.024738355,0.9534939,0.103643779,2.198190237,0.989430616,Subject A,Distracted
-0.024521146,0.546719558,0.120725246,0.653479719,0.970234237,Subject A,Distracted
-0.024299752,0.204334455,0.082561478,-0.902545423,0.810573338,Subject A,Distracted
-0.024074254,0.312506911,0.022850459,-0.465605883,0.739890384,Subject A,Distracted
-0.023844734,0.666324325,-0.026419183,1.375533832,0.817064424,Subject A,Distracted
-0.023611275,0.748618769,-0.053518904,2.30967831,0.893740019,Subject A,Distracted
-0.023373961,0.410473821,-0.059894531,1.343395493,0.820399098,Subject A,Distracted
-0.023132878,0.055949215,-0.050641047,-0.040450255,0.630110605,Subject A,Distracted
-0.022888112,0.0982579,-0.037205222,-0.024624781,0.489223914,Subject A,Distracted
-0.022639753,0.421517101,-0.040192703,1.091943311,0.488598569,Subject A,Distracted
-0.02238789,0.559344231,-0.076313044,1.433878223,0.530677563,Subject A,Distracted
-0.022132614,0.33206071,-0.137343324,0.279812785,0.449307089,Subject A,Distracted
-0.021874018,0.077946237,-0.186486924,-0.803480179,0.218933263,Subject A,Distracted
-0.021612196,0.175953587,-0.182913642,-0.074758235,-0.00341643,Subject A,Distracted
-0.021347245,0.517430981,-0.115008076,1.832559123,-0.061381911,Subject A,Distracted
-0.021079261,0.646280714,-0.012353334,2.504156005,0.014174463,Subject A,Distracted
-0.020808343,0.374923399,0.07438561,0.897865116,0.04945945,Subject A,Distracted
-0.02053459,0.039123684,0.109307793,-1.128459493,-0.052228689,Subject A,Distracted
-0.020258101,0.046243269,0.094511864,-1.121172811,-0.201034552,Subject A,Distracted
-0.019978975,0.322986636,0.062259806,0.761845359,-0.264125319,Subject A,Distracted
-0.019697314,0.401888692,0.042821223,1.940613223,-0.257531378,Subject A,Distracted
-0.019413217,0.037481049,0.037559564,0.837631236,-0.309343107,Subject A,Distracted
-0.019126783,-0.457169234,0.023873902,-1.012564714,-0.444682016,Subject A,Distracted
-0.018838113,-0.59908738,-0.013257279,-1.015775282,-0.514088542,Subject A,Distracted
-0.018547305,-0.345306929,-0.058375136,1.004086483,-0.392503587,Subject A,Distracted
-0.018254459,-0.127557026,-0.079686125,2.544726386,-0.176058423,Subject A,Distracted
-0.017959673,-0.268300261,-0.066763464,1.696403448,-0.083002142,Subject A,Distracted
-0.017663047,-0.549959255,-0.046246282,-0.413954922,-0.172214455,Subject A,Distracted
-0.017364679,-0.51008544,-0.053048878,-1.167576292,-0.255248421,Subject A,Distracted
-0.017064668,-0.073397301,-0.092729146,0.139321929,-0.127237185,Subject A,Distracted
-0.016763111,0.324000007,-0.143333204,1.487177355,0.175540809,Subject A,Distracted
-0.016460105,0.293008949,-0.186727875,0.884303024,0.41224701,Subject A,Distracted
-0.016155746,-0.007630526,-0.218207179,-0.974444675,0.410973169,Subject A,Distracted
-0.015850128,-0.096088547,-0.227414183,-1.607719159,0.238636977,Subject A,Distracted
-0.015543341,0.185684731,-0.198525007,-0.035616985,0.07995344,Subject A,Distracted
-0.015235478,0.468226429,-0.143326572,1.834874433,0.003567261,Subject A,Distracted
-0.014926625,0.359540611,-0.110492498,1.594760471,-0.087464033,Subject A,Distracted
-0.014616871,-0.021517939,-0.13590627,-0.550804047,-0.277337483,Subject A,Distracted
-0.014306299,-0.194560543,-0.192649003,-1.99453435,-0.484298953,Subject A,Distracted
-0.013994994,0.049043603,-0.213992523,-1.026380266,-0.545693924,Subject A,Distracted
-0.013683036,0.367071747,-0.164157303,1.048830273,-0.427539395,Subject A,Distracted
-0.013370505,0.312554935,-0.067896654,1.667043169,-0.271972378,Subject A,Distracted
-0.013057478,-0.077842003,0.026140331,0.254775638,-0.219738396,Subject A,Distracted
-0.012744029,-0.326510566,0.087653156,-1.233023025,-0.250936652,Subject A,Distracted
-0.012430232,-0.140391377,0.106560872,-1.000611852,-0.248542,Subject A,Distracted
-0.012116156,0.192099069,0.077493395,0.324539727,-0.177663657,Subject A,Distracted
-0.011801867,0.157868577,0.002559896,0.736020432,-0.129717217,Subject A,Distracted
-0.011487433,-0.31452624,-0.094655757,-0.35320121,-0.182368444,Subject A,Distracted
-0.011172915,-0.734863109,-0.171159956,-1.335871107,-0.277788067,Subject A,Distracted
-0.010858375,-0.650795183,-0.187652145,-0.65299186,-0.287640083,Subject A,Distracted
-0.010543874,-0.215582936,-0.134748778,0.99964767,-0.176314343,Subject A,Distracted
-0.010229467,0.004793487,-0.042542383,1.512457747,-0.045311091,Subject A,Distracted
-0.009915213,-0.257289774,0.036215288,0.166311466,-0.003998117,Subject A,Distracted
-0.009601165,-0.655005202,0.060365982,-1.363805888,-0.038051748,Subject A,Distracted
-0.009287378,-0.699243328,0.024839491,-1.197803289,-0.042334313,Subject A,Distracted
-0.008973906,-0.383582946,-0.044580239,0.251751435,0.030597707,Subject A,Distracted
-0.008660803,-0.149184542,-0.11531517,0.82053431,0.101218572,Subject A,Distracted
-0.008348122,-0.264721449,-0.164413803,-0.478959802,0.065202549,Subject A,Distracted
-0.008035916,-0.459087319,-0.178020729,-2.011814917,-0.06292659,Subject A,Distracted
-0.007724238,-0.292123501,-0.146874182,-1.585449223,-0.155945547,Subject A,Distracted
-0.007413141,0.232170684,-0.071237211,0.579103634,-0.129974138,Subject A,Distracted
-0.007102675,0.626386677,0.028395628,1.928699148,-0.046007802,Subject A,Distracted
-0.006792891,0.518802503,0.111529555,0.771496251,-0.019129541,Subject A,Distracted
-0.006483836,0.116124209,0.138820249,-1.514818525,-0.060472475,Subject A,Distracted
-0.006175559,-0.071804268,0.101969474,-2.190895257,-0.070397518,Subject A,Distracted
-0.005868104,0.113583923,0.03538658,-0.622642246,0.014449457,Subject A,Distracted
-0.005561517,0.298295001,-0.006427265,0.970102526,0.134856017,Subject A,Distracted
-0.005255838,0.100741976,0.007714973,0.435413562,0.200154134,Subject A,Distracted
-0.004951109,-0.334083662,0.056459386,-1.525008826,0.20700391,Subject A,Distracted
-0.00464737,-0.510733674,0.079083335,-2.312537874,0.203796428,Subject A,Distracted
-0.004344659,-0.247530493,0.026424875,-0.854190141,0.169510266,Subject A,Distracted
-0.004043011,0.066785939,-0.092025447,0.999833012,0.020344142,Subject A,Distracted
-0.003742464,-0.009965302,-0.211915799,0.924426153,-0.237067598,Subject A,Distracted
-0.003443052,-0.372202505,-0.268770344,-0.844626366,-0.431874034,Subject A,Distracted
-0.003144812,-0.502688453,-0.246617904,-1.897637729,-0.380346459,Subject A,Distracted
-0.002847776,-0.166681805,-0.172847628,-0.877344086,-0.10031521,Subject A,Distracted
-0.002551976,0.276594844,-0.081273359,0.790280869,0.181640896,Subject A,Distracted
-0.002257441,0.35963235,0.003925043,0.886275334,0.254326991,Subject A,Distracted
-0.001964201,0.122582622,0.0578074,-0.66687894,0.118546091,Subject A,Distracted
-0.001672291,0.031880997,0.055119346,-1.830833557,-0.062067407,Subject A,Distracted
-0.001381744,0.328326465,-0.005377349,-1.249094308,-0.168970485,Subject A,Distracted
-0.00109258,0.692520483,-0.084297763,0.030257494,-0.228325744,Subject A,Distracted
-0.000804814,0.672110863,-0.123473079,0.153447885,-0.302185522,Subject A,Distracted
-0.000518477,0.289526969,-0.094461181,-0.901100725,-0.355615078,Subject A,Distracted
-0.000233621,0.016908003,-0.027141777,-1.286130338,-0.302246891,Subject A,Distracted
4.97e-05,0.154882247,0.015716343,0.05902796,-0.161318849,Subject A,Distracted
0.000331492,0.439526237,-0.002767525,1.673322221,-0.085266716,Subject A,Distracted
0.000611779,0.392813096,-0.062065026,1.283942051,-0.191613408,Subject A,Distracted
0.000890544,-0.047524182,-0.112621198,-1.09685821,-0.411909495,Subject A,Distracted
0.001167652,-0.438838682,-0.127983074,-2.840205234,-0.560129559,Subject A,Distracted
0.001442957,-0.38836167,-0.119872093,-1.87804011,-0.537817593,Subject A,Distracted
0.001716508,-0.024806772,-0.107243725,0.590895718,-0.419035774,Subject A,Distracted
0.001988561,0.205878917,-0.089166634,1.53010902,-0.318072205,Subject A,Distracted
0.002259216,0.121363817,-0.057588218,-0.05720698,-0.223332413,Subject A,Distracted
0.002528044,-0.009289394,-0.024273485,-1.873861175,-0.023479994,Subject A,Distracted
0.002794406,0.104796096,-0.018608506,-1.404768881,0.301174903,Subject A,Distracted
0.00305842,0.331523794,-0.058874235,0.752414279,0.581605237,Subject A,Distracted
0.003321314,0.277318773,-0.134487883,1.733542278,0.617598246,Subject A,Distracted
0.003583991,-0.14412042,-0.216223783,0.251114777,0.418725388,Subject A,Distracted
0.003845026,-0.511424733,-0.276208616,-1.721380386,0.221816783,Subject A,Distracted
0.004101372,-0.376619672,-0.296703758,-1.609981969,0.242341867,Subject A,Distracted
0.004352689,0.171125776,-0.269918255,0.357799665,0.449709037,Subject A,Distracted
0.004604171,0.592470301,-0.203463184,1.490033094,0.622667489,Subject A,Distracted
0.004861343,0.533624272,-0.128213915,0.189184707,0.600929076,Subject A,Distracted
0.005119899,0.212285013,-0.08522971,-1.951840822,0.440804934,Subject A,Distracted
0.005365313,0.094864198,-0.089692355,-2.216417232,0.322181807,Subject A,Distracted
0.005591183,0.305757518,-0.112708017,-0.28691064,0.336254882,Subject A,Distracted
0.005819225,0.51293432,-0.112734182,1.342911493,0.397812358,Subject A,Distracted
0.006089804,0.396020919,-0.083472213,0.606066648,0.369936861,Subject A,Distracted
0.006420976,0.065045489,-0.058244473,-1.448069449,0.23747764,Subject A,Distracted
0.006779925,-0.106703119,-0.068096913,-2.028452545,0.110487114,Subject A,Distracted
0.007106722,0.010536947,-0.109279729,-0.258417367,0.061289198,Subject A,Distracted
0.007368548,0.142624766,-0.153709065,1.677004462,0.021248415,Subject A,Distracted
0.007583452,0.004650078,-0.177210987,1.380793249,-0.117374435,Subject A,Distracted
0.007791792,-0.294819035,-0.171196764,-0.678118741,-0.332537934,Subject A,Distracted
0.00801527,-0.389964039,-0.138552867,-1.855838697,-0.472385798,Subject A,Distracted
0.008247469,-0.148861886,-0.090085781,-0.785941345,-0.433311509,Subject A,Distracted
0.008473848,0.146416651,-0.043623082,0.946289399,-0.284122648,Subject A,Distracted
0.008690077,0.172979343,-0.019949783,0.992070194,-0.17792644,Subject A,Distracted
0.008901665,-0.015433756,-0.034150994,-0.664988583,-0.174452736,Subject A,Distracted
0.009113783,-0.095760568,-0.082910736,-1.742378837,-0.198045269,Subject A,Distracted
0.009326066,0.044638978,-0.135860319,-0.709627768,-0.159762107,Subject A,Distracted
0.009535444,0.134843799,-0.150308217,1.195925745,-0.066631749,Subject A,Distracted
0.009740465,-0.076297225,-0.110689297,1.627582534,0.009010746,Subject A,Distracted
0.009942003,-0.389493115,-0.052699664,0.203607616,0.031620941,Subject A,Distracted
0.010141258,-0.343300718,-0.033417822,-1.104164817,0.03571617,Subject A,Distracted
0.010338321,0.154412561,-0.072385707,-0.706546459,0.059683236,Subject A,Distracted
0.010532523,0.591684682,-0.132407768,0.48733559,0.076386952,Subject A,Distracted
0.010723408,0.412557265,-0.163829187,0.416733055,0.017277118,Subject A,Distracted
0.010911046,-0.274425405,-0.157727824,-1.176212723,-0.128610105,Subject A,Distracted
0.011095667,-0.759570893,-0.146476367,-2.219810781,-0.262833783,Subject A,Distracted
0.011277294,-0.551034888,-0.158828287,-1.013812641,-0.257851942,Subject A,Distracted
0.011455754,0.051598779,-0.186253309,1.400474644,-0.093531614,Subject A,Distracted
0.011630888,0.352651426,-0.192954791,2.407623017,0.115532436,Subject A,Distracted
0.011802651,0.114517075,-0.150990718,1.068146055,0.242253418,Subject A,Distracted
0.011971051,-0.220517313,-0.065681104,-0.771688343,0.268116753,Subject A,Distracted
0.012136061,-0.181232054,0.026297351,-0.91372357,0.260755682,Subject A,Distracted
0.012297609,0.110860557,0.082307229,0.430185558,0.26025457,Subject A,Distracted
0.012455617,0.160901147,0.083259573,1.094648105,0.231827756,Subject A,Distracted
0.012610033,-0.185193035,0.044121839,-0.073213982,0.133670646,Subject A,Distracted
0.012760819,-0.517131915,-0.000655484,-1.6600857,-0.004474516,Subject A,Distracted
0.012907935,-0.410101282,-0.020084695,-1.55665669,-0.104049791,Subject A,Distracted
0.013051331,0.011013794,-0.000144255,0.216778413,-0.142219685,Subject A,Distracted
0.013190956,0.239840736,0.053794563,1.469764847,-0.20253933,Subject A,Distracted
0.013326764,0.044918863,0.121101725,0.707826053,-0.382495656,Subject A,Distracted
0.013458715,-0.2536478,0.177143945,-0.857681549,-0.651903234,Subject A,Distracted
0.013586768,-0.228000328,0.208103114,-0.899022528,-0.848496736,Subject A,Distracted
0.013710883,0.093017196,0.216466367,0.879773183,-0.841508397,Subject A,Distracted
0.013831019,0.273153495,0.211279497,2.267575765,-0.671757323,Subject A,Distracted
0.013947137,0.052587525,0.195274911,1.443977137,-0.495993824,Subject A,Distracted
0.014059203,-0.306173149,0.164403942,-0.612873211,-0.410540979,Subject A,Distracted
0.014167184,-0.361218309,0.119088316,-1.415396808,-0.374487257,Subject A,Distracted
0.014271047,-0.067815103,0.071723127,-0.188755785,-0.311256515,Subject A,Distracted
0.014370763,0.16653499,0.039892789,1.245011242,-0.23577189,Subject A,Distracted
0.014466301,0.014142067,0.031599113,0.978557887,-0.228983917,Subject A,Distracted
0.014557636,-0.349486244,0.035788205,-0.483304802,-0.287392199,Subject A,Distracted
0.014644742,-0.469773195,0.026459013,-0.996751668,-0.253380488,Subject A,Distracted
0.014727598,-0.179523799,-0.016479349,0.292205714,0.044018768,Subject A,Distracted
0.014806182,0.21754827,-0.07850957,1.773214557,0.564117663,Subject A,Distracted
0.014880477,0.348331207,-0.105290362,1.506804747,1.009617971,Subject A,Distracted
0.014950464,0.209704376,-0.046561105,-0.162265496,1.06134376,Subject A,Distracted
0.015016128,0.092534226,0.082934342,-1.015511872,0.677494068,Subject A,Distracted
0.015077452,0.139123481,0.200114367,0.095864869,0.137313615,Subject A,Distracted
0.015134423,0.155500152,0.227740243,1.690739356,-0.221846221,Subject A,Distracted
0.015187028,-0.062794761,0.16642417,1.618013456,-0.277525855,Subject A,Distracted
0.015235255,-0.34952229,0.080826586,-0.045384432,-0.127562989,Subject A,Distracted
0.015279094,-0.305787175,0.024221211,-1.061280474,0.091777753,Subject A,Distracted
0.015318538,0.158825694,-0.002376472,-0.022921909,0.30322343,Subject A,Distracted
0.015353577,0.609208942,-0.019357664,1.714710645,0.440859846,Subject A,Distracted
0.015384207,0.564581014,-0.025835328,1.787868525,0.432723265,Subject A,Distracted
0.015410421,0.109919838,-0.005838647,-0.01785744,0.288936948,Subject A,Distracted
0.015432215,-0.177204528,0.036037698,-1.399281635,0.143471843,Subject A,Distracted
0.015449583,0.061029479,0.06846589,-0.507155767,0.132857772,Subject A,Distracted
0.015462522,0.5188102,0.068198973,1.613981234,0.241912672,Subject A,Distracted
0.015471028,0.636785984,0.049822411,2.334886604,0.321952599,Subject A,Distracted
0.015475099,0.336182225,0.053067578,0.815335559,0.269436933,Subject A,Distracted
0.015474733,0.118037547,0.103224374,-0.947027203,0.147035901,Subject A,Distracted
0.015469927,0.402611087,0.186303926,-0.744066353,0.107008045,Subject A,Distracted
0.015460683,0.975758011,0.259166803,0.980086758,0.216009648,Subject A,Distracted
0.015447001,1.255791281,0.282299531,1.769844717,0.380852202,Subject A,Distracted
0.015428883,1.016848647,0.248312631,0.450839375,0.447617678,Subject A,Distracted
0.015406332,0.627238541,0.18423512,-1.285117691,0.357744301,Subject A,Distracted
0.01537935,0.524443493,0.127633814,-1.129253544,0.193645345,Subject A,Distracted
0.015347943,0.650647867,0.10107663,0.753834821,0.078111101,Subject A,Distracted
0.015312118,0.587437944,0.10687308,1.941055693,0.055524987,Subject A,Distracted
0.015271882,0.172881601,0.135086851,0.96176104,0.084829997,Subject A,Distracted
0.015227243,-0.242642558,0.16550615,-0.82590529,0.119373263,Subject A,Distracted
0.01517821,-0.235705946,0.16705039,-1.138442714,0.14877278,Subject A,Distracted
0.015124796,0.147478417,0.114964154,0.21246484,0.159645,Subject A,Distracted
0.015067013,0.454203697,0.021728768,1.21330177,0.1034189,Subject A,Distracted
0.015004877,0.396552506,-0.055797766,0.467679797,-0.051569812,Subject A,Distracted
0.014938405,0.181177941,-0.056767888,-0.910756548,-0.243677884,Subject A,Distracted
0.014867618,0.186288997,0.0263866,-0.844880368,-0.34246445,Subject A,Distracted
0.014792535,0.434635235,0.132001506,0.825377101,-0.28072771,Subject A,Distracted
0.01471318,0.56600783,0.175081442,2.021179103,-0.141184704,Subject A,Distracted
0.014629576,0.340477168,0.11435294,1.159368396,-0.074102637,Subject A,Distracted
