timestamps,TP9,AF7,AF8,TP10,Subject,Emotion
0.010326895,0.461509257,-0.076990979,0.327227766,-0.12074933,Subject A,Distracted
0.010471301,0.122269181,-0.109787912,-0.183900969,-0.166494158,Subject A,Distracted
0.010612704,0.166311874,-0.17515525,0.332803289,-0.21990727,Subject A,Distracted
0.010751036,0.555649096,-0.213524708,1.226713446,-0.215299572,Subject A,Distracted
0.010886232,0.852609825,-0.197413011,1.436285382,-0.221224355,Subject A,Distracted
0.011018227,0.791330901,-0.150514572,0.81261518,-0.27967252,Subject A,Distracted
0.01114696,0.578953173,-0.116153603,0.246140753,-0.293812155,Subject A,Distracted
0.011272368,0.56197761,-0.121074486,0.449426398,-0.155355517,Subject A,Distracted
0.011394393,0.745433073,-0.165322379,1.032058785,0.077497058,Subject A,Distracted
0.011512976,0.810063381,-0.228792883,1.090147325,0.225634124,Subject A,Distracted
0.011628061,0.581251685,-0.28077393,0.471302305,0.207811553,Subject A,Distracted
0.011739593,0.304254384,-0.294558142,-0.019243794,0.133562114,Subject A,Distracted
0.01184752,0.348501273,-0.264617152,0.26363478,0.150258414,Subject A,Distracted
0.011951789,0.723458333,-0.210218791,0.899312478,0.261393802,Subject A,Distracted
0.012052352,1.040198769,-0.159252475,0.947065977,0.349433667,Subject A,Distracted
0.012149158,0.980379425,-0.128574134,0.223221086,0.338825091,Subject A,Distracted
0.01224216,0.681044927,-0.118725625,-0.400318675,0.270018307,Subject A,Distracted
0.012331313,0.542140311,-0.122311262,-0.102667143,0.220989595,Subject A,Distracted
0.012416572,0.698395691,-0.13329676,0.806411256,0.215228867,Subject A,Distracted
0.012497895,0.841924988,-0.148694209,1.256023551,0.223980512,Subject A,Distracted
0.012575244,0.63979249,-0.164018484,0.774281904,0.220553948,Subject A,Distracted
0.012648581,0.198015928,-0.169484109,0.078022849,0.203275308,Subject A,Distracted
0.012717874,-0.062670046,-0.152739203,0.127390099,0.179339999,Subject A,Distracted
0.012783091,0.035986531,-0.108263788,0.884601107,0.153985185,Subject A,Distracted
0.012844204,0.206906684,-0.046536024,1.390981537,0.140034145,Subject A,Distracted
0.012901188,0.128904283,0.008149257,1.033359731,0.161949952,Subject A,Distracted
0.012954019,-0.069846506,0.035335505,0.318371047,0.238470659,Subject A,Distracted
0.013002676,0.027602147,0.036558232,0.151925241,0.359947281,Subject A,Distracted
0.013047141,0.522238365,0.031600672,0.621012448,0.483786507,Subject A,Distracted
0.013087398,0.990208913,0.03530402,0.932629375,0.556394426,Subject A,Distracted
0.013123432,0.987089519,0.044580246,0.581774184,0.547417537,Subject A,Distracted
0.013155233,0.607357356,0.050299185,0.119196655,0.464528216,Subject A,Distracted
0.013182792,0.353008698,0.052968871,0.413830498,0.33553605,Subject A,Distracted
0.013206101,0.486377638,0.0610591,1.386344648,0.18777934,Subject A,Distracted
0.013225156,0.720188449,0.079639022,1.976451739,0.049403498,Subject A,Distracted
0.013239954,0.630229409,0.104535951,1.471126387,-0.053154474,Subject A,Distracted
0.013250494,0.221537165,0.123079284,0.454746219,-0.119781106,Subject A,Distracted
0.013256775,-0.087033161,0.120228263,0.091207549,-0.181083863,Subject A,Distracted
0.0132588,-0.004837462,0.091826947,0.654946759,-0.255629369,Subject A,Distracted
0.013256575,0.281641626,0.053826288,1.244453249,-0.317282916,Subject A,Distracted
0.01325011,0.377337272,0.030814359,1.040080227,-0.326885499,Subject A,Distracted
0.013239413,0.182132254,0.032137277,0.396518195,-0.283573066,Subject A,Distracted
0.013224488,-0.02036497,0.044527134,0.303299986,-0.222007039,Subject A,Distracted
0.013205346,0.031506872,0.0505039,0.985082301,-0.169843977,Subject A,Distracted
0.013182008,0.235516291,0.050137371,1.577579428,-0.137816104,Subject A,Distracted
0.013154503,0.291088333,0.062799366,1.316543377,-0.145895766,Subject A,Distracted
0.013122848,0.124997828,0.107748273,0.603257281,-0.207929454,Subject A,Distracted
0.013087039,-0.008786202,0.179515693,0.493412947,-0.264813045,Subject A,Distracted
0.013047081,0.115911632,0.240321224,1.288283481,-0.190824697,Subject A,Distracted
0.013003029,0.37674509,0.244834401,2.089704023,0.059821104,Subject A,Distracted
0.012954973,0.450577816,0.18382217,1.909085466,0.333521024,Subject A,Distracted
0.012902955,0.233622216,0.103541618,0.925297761,0.392403227,Subject A,Distracted
0.012846902,-0.015210813,0.071808001,0.300480769,0.176029486,Subject A,Distracted
0.012786734,0.007408762,0.117439799,0.768792847,-0.112263668,Subject A,Distracted
0.012722565,0.27103717,0.202595126,1.755627043,-0.223947025,Subject A,Distracted
0.012654718,0.449562234,0.254949907,2.130778599,-0.134266597,Subject A,Distracted
0.012583361,0.332353345,0.227257916,1.62610591,-0.041530503,Subject A,Distracted
0.012508132,0.087216511,0.130503277,1.1029093,-0.110698668,Subject A,Distracted
0.012428459,0.026583211,0.017576201,1.370726834,-0.278237938,Subject A,Distracted
0.012344527,0.175725958,-0.06019401,2.140478043,-0.343864148,Subject A,Distracted
0.012257632,0.236936067,-0.083044711,2.453806532,-0.221109929,Subject A,Distracted
0.012168743,0.041799106,-0.060555652,1.961683614,-0.032786807,Subject A,Distracted
0.012076504,-0.110746909,-0.014527726,1.365475897,0.058162748,Subject A,Distracted
0.011977937,0.232725834,0.028208722,1.4858315,0.048394149,Subject A,Distracted
0.01187277,1.026957227,0.036380841,2.202273078,0.057176533,Subject A,Distracted
0.011766266,1.598719705,-0.010676537,2.633791036,0.120618266,Subject A,Distracted
0.011664026,1.337805571,-0.098291442,2.302367714,0.123508903,Subject A,Distracted
0.011561812,0.43799845,-0.177147416,1.745319179,-0.030372235,Subject A,Distracted
0.011445173,-0.254937632,-0.202950809,1.770015614,-0.261079845,Subject A,Distracted
0.011307781,-0.180421753,-0.176424308,2.353084614,-0.402899887,Subject A,Distracted
0.011171427,0.328302105,-0.137590211,2.683993934,-0.416374674,Subject A,Distracted
0.011076553,0.524098876,-0.121557835,2.310111087,-0.418649207,Subject A,Distracted
0.011041295,0.21699445,-0.126988166,1.806650319,-0.489415487,Subject A,Distracted
0.011032918,-0.010695283,-0.128032646,2.010369547,-0.532527788,Subject A,Distracted
0.010991578,0.374568694,-0.107644693,2.83470279,-0.401543956,Subject A,Distracted
0.010884542,1.087760967,-0.072012663,3.309698847,-0.129216414,Subject A,Distracted
0.010729948,1.334189281,-0.038124116,2.858378444,0.061931196,Subject A,Distracted
0.010568249,0.794351437,-0.020367023,2.10944436,0.017429793,Subject A,Distracted
0.010421244,0.000209246,-0.031288865,2.102301725,-0.140895811,Subject A,Distracted
0.010282615,-0.349560978,-0.07863772,2.901378573,-0.146813036,Subject A,Distracted
0.010137926,-0.202069471,-0.146230636,3.49432545,0.073773539,Subject A,Distracted
0.009982958,-0.072111862,-0.186628319,3.147222217,0.288703583,Subject A,Distracted
0.009823331,-0.290876854,-0.155004093,2.39869052,0.241896596,Subject A,Distracted
0.009664329,-0.623445632,-0.05697279,2.347939211,-0.007486512,Subject A,Distracted
0.009505707,-0.684158608,0.048324555,3.185745272,-0.133559536,Subject A,Distracted
0.009344514,-0.496829729,0.099904761,3.907973812,0.059691688,Subject A,Distracted
0.009179422,-0.441586897,0.086714203,3.581330559,0.395673262,Subject A,Distracted
0.009011432,-0.707377697,0.047966432,2.539617869,0.547250019,Subject A,Distracted
0.008841874,-1.01062833,0.0293413,1.999962757,0.426926143,Subject A,Distracted
0.008670967,-0.960149821,0.04338943,2.580987268,0.248010756,Subject A,Distracted
0.008498174,-0.580539866,0.068080455,3.577167015,0.222551746,Subject A,Distracted
0.008323171,-0.285312578,0.074166351,3.887555195,0.324604859,Subject A,Distracted
0.008146163,-0.329700559,0.04929437,3.391074865,0.401120632,Subject A,Distracted
0.007967511,-0.491880977,0.001458971,3.003419593,0.424801071,Subject A,Distracted
0.007787369,-0.416512085,-0.051499163,3.397949158,0.528482665,Subject A,Distracted
0.007605697,-0.12406656,-0.093535434,4.116025956,0.78753281,Subject A,Distracted
0.007422466,0.033355947,-0.115988389,4.2193567,1.053519608,Subject A,Distracted
0.007237764,-0.110356334,-0.114856438,3.57102586,1.075175584,Subject A,Distracted
0.007051729,-0.295384792,-0.086094153,3.038285377,0.78169922,Subject A,Distracted
0.006864467,-0.222877155,-0.03065123,3.366813454,0.389794113,Subject A,Distracted
0.006676038,-0.019065783,0.035236297,4.212260531,0.19169195,Subject A,Distracted
0.006486497,-0.092242822,0.086935575,4.58917123,0.263769867,Subject A,Distracted
0.006295921,-0.538688568,0.116664855,4.145217781,0.431280561,Subject A,Distracted
0.006104406,-0.92355626,0.141588423,3.592687454,0.505590701,Subject A,Distracted
0.00591204,-0.799025744,0.175456387,3.728955638,0.487536372,Subject A,Distracted
0.005718903,-0.306840809,0.201541814,4.351240068,0.51016748,Subject A,Distracted
0.005525073,-0.041711033,0.190223928,4.540528613,0.638587884,Subject A,Distracted
0.005330635,-0.312738707,0.139944883,3.94860531,0.79628499,Subject A,Distracted
0.005135677,-0.754949955,0.083773824,3.318484827,0.886246093,Subject A,Distracted
0.004940288,-0.795226006,0.053731962,3.482703541,0.917425648,Subject A,Distracted
0.004744556,-0.360636568,0.053161168,4.190328155,0.962615399,Subject A,Distracted
0.00454857,0.073779329,0.067680439,4.399817883,1.021113921,Subject A,Distracted
0.00435242,0.117383711,0.087984236,3.689816676,0.998508039,Subject A,Distracted
0.004156198,-0.058995513,0.111693905,2.873666718,0.845543115,Subject A,Distracted
0.003959999,0.013224908,0.132182245,2.935876053,0.649854775,Subject A,Distracted
0.003763917,0.469383756,0.137553952,3.696823356,0.525053678,Subject A,Distracted
0.003568047,0.922425741,0.11816105,4.029109747,0.445344761,Subject A,Distracted
0.003372482,0.938734754,0.069792688,3.366850146,0.276618712,Subject A,Distracted
0.003177319,0.56909224,-0.002206992,2.490331165,-0.021465257,Subject A,Distracted
0.002982653,0.27545232,-0.073121783,2.531098829,-0.302820956,Subject A,Distracted
0.002788578,0.356046882,-0.105434952,3.499102329,-0.387105509,Subject A,Distracted
0.002595189,0.590272322,-0.084883029,4.237129342,-0.261289275,Subject A,Distracted
0.002402578,0.548876027,-0.046320074,3.846102071,-0.082786684,Subject A,Distracted
0.002210836,0.176327579,-0.04302764,2.771743062,-0.001617375,Subject A,Distracted
0.002020054,-0.117295133,-0.087136725,2.216059477,-0.026437701,Subject A,Distracted
0.00183032,-0.005298497,-0.138115526,2.657570465,-0.071116326,Subject A,Distracted
0.001641721,0.285032552,-0.155193864,3.346869279,-0.087457007,Subject A,Distracted
0.001454343,0.257510602,-0.141292699,3.351299457,-0.105403869,Subject A,Distracted
0.001268268,-0.138834189,-0.121932783,2.73232752,-0.147169804,Subject A,Distracted
0.00108358,-0.347013054,-0.098753089,2.337018716,-0.154052355,Subject A,Distracted
0.000900359,0.099571395,-0.050789312,2.578925944,-0.040718293,Subject A,Distracted
0.000718682,0.891451972,0.019257992,2.905310648,0.184490546,Subject A,Distracted
0.000538627,1.21438627,0.067608295,2.628104249,0.391049385,Subject A,Distracted
0.000360268,0.693614184,0.056102729,1.903783949,0.446851011,Subject A,Distracted
0.000183676,-0.172956624,0.004808911,1.503712783,0.359354004,Subject A,Distracted
8.92e-06,-0.619681107,-0.02276971,1.734500436,0.256134149,Subject A,Distracted
-0.000163932,-0.462883513,0.010556055,2.013374444,0.210084999,Subject A,Distracted
-0.000334818,-0.165565861,0.074351966,1.662677947,0.140476289,Subject A,Distracted
-0.000503676,-0.149765037,0.10652341,0.830277932,-0.053564025,Subject A,Distracted
-0.00067045,-0.299047512,0.083394666,0.293218562,-0.306414719,Subject A,Distracted
-0.00083508,-0.242870437,0.043742384,0.402164544,-0.434151079,Subject A,Distracted
-0.000997512,0.046318761,0.042793886,0.582101613,-0.373246585,Subject A,Distracted
-0.001157693,0.191076748,0.091981556,0.093874671,-0.267438787,Subject A,Distracted
-0.001315569,-0.041390542,0.152721051,-0.927920469,-0.264838843,Subject A,Distracted
-0.001471089,-0.368093947,0.18590477,-1.582331097,-0.307775017,Subject A,Distracted
-0.001624202,-0.349906936,0.192303241,-1.39015316,-0.214156056,Subject A,Distracted
-0.001774862,0.000714795,0.194097041,-1.001415695,0.060177715,Subject A,Distracted
-0.00192302,0.229828005,0.188373689,-1.408728748,0.333765709,Subject A,Distracted
-0.002068632,0.08666867,0.144290147,-2.628023124,0.396737379,Subject A,Distracted
-0.002211652,-0.095174773,0.054717055,-3.603137567,0.237532757,Subject A,Distracted
-0.00235204,0.15817353,-0.030739192,-3.543833126,0.041223521,Subject A,Distracted
-0.002489756,0.777175572,-0.048699754,-2.97902299,-0.001977018,Subject A,Distracted
-0.002624765,1.161030696,0.00483647,-3.106284938,0.141242774,Subject A,Distracted
-0.002757031,0.897753064,0.065672883,-4.247561278,0.347148568,Subject A,Distracted
-0.002886523,0.283033334,0.07296838,-5.422552672,0.465916285,Subject A,Distracted
-0.003013209,-0.00482339,0.034272307,-5.595273067,0.463078451,Subject A,Distracted
-0.00313706,0.328572581,0.006777908,-4.984508305,0.436046241,Subject A,Distracted
-0.003258049,0.896630604,0.023811618,-4.792622539,0.46770127,Subject A,Distracted
-0.003376149,1.116623578,0.057355039,-5.739454943,0.482925328,Subject A,Distracted
-0.003491336,0.8621925,0.052994881,-7.225176166,0.332248673,Subject A,Distracted
-0.003603587,0.531516996,-0.013155642,-8.079664445,0.041411959,Subject A,Distracted
-0.003712879,0.524764068,-0.116049783,-7.906430584,-0.130237866,Subject A,Distracted
-0.003819191,0.80065252,-0.205842437,-7.411192815,0.019883992,Subject A,Distracted
-0.003922502,1.019564386,-0.242667942,-7.454653033,0.345900742,Subject A,Distracted
-0.004022791,1.041644757,-0.220430843,-8.089864436,0.476556378,Subject A,Distracted
-0.004120041,1.123969613,-0.170690026,-8.678638079,0.240249726,Subject A,Distracted
-0.004214233,1.552571999,-0.139718101,-8.74701268,-0.128272537,Subject A,Distracted
-0.004305346,2.190229017,-0.149671263,-8.462220137,-0.253108712,Subject A,Distracted
-0.004393363,2.573793599,-0.179039026,-8.291436739,-0.033780876,Subject A,Distracted
-0.004478264,2.487209837,-0.185925804,-8.427346965,0.264823834,Subject A,Distracted
-0.00456003,2.256045395,-0.151697322,-8.672852958,0.318999172,Subject A,Distracted
-0.004638643,2.325911135,-0.098433498,-8.777796973,0.075962246,Subject A,Distracted
-0.004714084,2.650934662,-0.064775815,-8.721681587,-0.235104181,Subject A,Distracted
-0.004786333,2.713238892,-0.070663232,-8.648757575,-0.358136449,Subject A,Distracted
-0.004855373,2.172619378,-0.105183782,-8.643662881,-0.231109246,Subject A,Distracted
-0.004921184,1.31270869,-0.139680775,-8.65933433,0.010023179,Subject A,Distracted
-0.004983748,0.725307312,-0.147683633,-8.634792026,0.186592457,Subject A,Distracted
-0.005043046,0.652997704,-0.118575801,-8.596562112,0.227855649,Subject A,Distracted
-0.00509906,0.79060653,-0.062060973,-8.605382866,0.199630172,Subject A,Distracted
-0.005151769,0.71034478,-0.003355713,-8.645089438,0.210801417,Subject A,Distracted
-0.005201155,0.326204157,0.030295736,-8.632864108,0.300826875,Subject A,Distracted
-0.005247198,-0.12669736,0.026789346,-8.554857288,0.414196997,Subject A,Distracted
-0.005289881,-0.449051219,-0.001937071,-8.526764892,0.465463535,Subject A,Distracted
-0.005329187,-0.654971588,-0.029780224,-8.640431084,0.410287077,Subject A,Distracted
-0.0053651,-0.807633228,-0.038735475,-8.764334699,0.267562081,Subject A,Distracted
-0.005397605,-0.854475138,-0.032083659,-8.622051707,0.113896435,Subject A,Distracted
-0.005426688,-0.742384434,-0.02666274,-8.161790386,0.058014269,Subject A,Distracted
-0.005452339,-0.609348332,-0.035770234,-7.752530567,0.159524082,Subject A,Distracted
-0.005474547,-0.695879354,-0.059544994,-7.816133078,0.340178317,Subject A,Distracted
-0.005493305,-1.031876111,-0.085160925,-8.246794709,0.42990154,Subject A,Distracted
-0.005508605,-1.327278268,-0.09293656,-8.424314,0.349776884,Subject A,Distracted
-0.005520442,-1.276527287,-0.07105414,-7.963316148,0.208487578,Subject A,Distracted
-0.005528813,-0.939960862,-0.034362935,-7.277624556,0.166699481,Subject A,Distracted
-0.005533716,-0.707235697,-0.023255155,-7.117822841,0.244012888,Subject A,Distracted
-0.005535151,-0.8297634,-0.069180045,-7.573478677,0.325747967,Subject A,Distracted
-0.005533119,-1.075128511,-0.158435688,-7.865268422,0.339140675,Subject A,Distracted
-0.005527626,-0.975813317,-0.240193917,-7.309710807,0.336033727,Subject A,Distracted
-0.005518677,-0.424870896,-0.273366608,-6.249423523,0.374281128,Subject A,Distracted
-0.005506281,0.124894674,-0.257751821,-5.6729899,0.392673664,Subject A,Distracted
-0.005490447,0.162591379,-0.219331605,-5.938377295,0.278864795,Subject A,Distracted
-0.00547119,-0.278761213,-0.178072007,-6.269734269,0.039611209,Subject A,Distracted
-0.005448524,-0.694577774,-0.136602718,-5.753208161,-0.169093058,Subject A,Distracted
-0.005422468,-0.764609429,-0.091801903,-4.564851792,-0.201074979,Subject A,Distracted
-0.005393041,-0.721782789,-0.048171119,-3.791103929,-0.071310796,Subject A,Distracted
-0.005360267,-0.945924913,-0.01847682,-4.03163169,0.07585074,Subject A,Distracted
-0.005324168,-1.352964796,-0.011629965,-4.614088294,0.129615857,Subject A,Distracted
-0.005284771,-1.445385546,-0.021045693,-4.477708403,0.110800878,Subject A,Distracted
-0.005242105,-0.988795986,-0.030211819,-3.55872207,0.106821835,Subject A,Distracted
-0.0051962,-0.399873167,-0.032134363,-2.817020078,0.150095164,Subject A,Distracted
-0.005147087,-0.293906194,-0.036187252,-2.88144276,0.193637693,Subject A,Distracted
-0.0050948,-0.756133944,-0.048878029,-3.178085891,0.184964092,Subject A,Distracted
-0.005039375,-1.258431707,-0.053715449,-2.735628534,0.120323132,Subject A,Distracted
-0.00498085,-1.307018311,-0.023704992,-1.567837345,0.02521838,Subject A,Distracted
-0.004919263,-1.00606647,0.041663297,-0.75264205,-0.078504516,Subject A,Distracted
-0.004854657,-0.862593262,0.102042389,-1.06046835,-0.163412003,Subject A,Distracted
-0.004787073,-1.106815957,0.110166846,-1.904505596,-0.180267584,Subject A,Distracted
-0.004716558,-1.392086995,0.059627029,-2.013864367,-0.096277729,Subject A,Distracted
-0.004643156,-1.253440818,-0.007950936,-1.032306185,0.039397192,Subject A,Distracted
-0.004566916,-0.732170414,-0.043477056,0.000704919,0.106798593,Subject A,Distracted
-0.004487886,-0.350607327,-0.033180934,-0.037175937,0.030671115,Subject A,Distracted
-0.004406116,-0.462982141,-0.001470152,-0.894640007,-0.127730845,Subject A,Distracted
-0.004321656,-0.826557194,0.021802105,-1.247919722,-0.234843821,Subject A,Distracted
-0.00423456,-0.945439798,0.030238157,-0.401122506,-0.243548807,Subject A,Distracted
-0.004144881,-0.719035834,0.035485085,0.815123139,-0.246626498,Subject A,Distracted
-0.004052672,-0.528641275,0.039379622,1.107860979,-0.346958458,Subject A,Distracted
-0.003957986,-0.651199295,0.02579051,0.351738521,-0.499447943,Subject A,Distracted
-0.003860879,-0.810466165,-0.009475096,-0.308318417,-0.52451134,Subject A,Distracted
-0.003761405,-0.523188562,-0.030016813,0.051244524,-0.296718399,Subject A,Distracted
-0.003659621,0.180444711,0.016531772,1.005801389,0.092983885,Subject A,Distracted
-0.003555584,0.654159655,0.13553958,1.41221717,0.38723986,Subject A,Distracted
-0.003449352,0.368563428,0.262742768,0.894356794,0.383692121,Subject A,Distracted
-0.003340986,-0.435407575,0.320976958,0.267137034,0.097666593,Subject A,Distracted
-0.003230548,-1.027505357,0.295177221,0.435665824,-0.287406601,Subject A,Distracted
-0.003118104,-1.043333486,0.241833916,1.254975575,-0.588631475,Subject A,Distracted
-0.00300372,-0.813859217,0.228966054,1.806778199,-0.722166712,Subject A,Distracted
-0.002887465,-0.797144877,0.271678183,1.659745932,-0.682558141,Subject A,Distracted
-0.002769414,-0.927101912,0.318486538,1.397951832,-0.491392356,Subject A,Distracted
-0.002649639,-0.748504105,0.2963921,1.71761669,-0.187447475,Subject A,Distracted
-0.002528218,-0.118207397,0.179554503,2.382239994,0.146536911,Subject A,Distracted
-0.002405231,0.494602774,0.019918052,2.553266167,0.37404337,Subject A,Distracted
-0.002280759,0.533194041,-0.096443071,2.063451217,0.370210506,Subject A,Distracted
-0.002154886,0.041982039,-0.125481614,1.788102977,0.140733074,Subject A,Distracted
-0.002027697,-0.367251236,-0.093501768,2.48913778,-0.139680496,Subject A,Distracted
-0.00189928,-0.240262154,-0.057383456,3.694639095,-0.259380353,Subject A,Distracted
-0.001769721,0.212551456,-0.052197472,4.209976272,-0.156442325,Subject A,Distracted
-0.001639111,0.435515773,-0.076346028,3.649447304,0.045526854,Subject A,Distracted
-0.001507538,0.212570504,-0.109785001,2.970647207,0.185680817,Subject A,Distracted
-0.001375094,-0.160922576,-0.137019726,3.282034331,0.222496251,Subject A,Distracted
-0.001241869,-0.350553261,-0.158248213,4.443235417,0.232470131,Subject A,Distracted
-0.001107957,-0.384137076,-0.183698313,5.252691843,0.276933347,Subject A,Distracted
-0.000973448,-0.462111715,-0.215566442,4.982625586,0.310645483,Subject A,Distracted
-0.000838437,-0.547760412,-0.237420418,4.289688269,0.245732824,Subject A,Distracted
-0.000703016,-0.400714392,-0.230460593,4.330453471,0.080260799,Subject A,Distracted
-0.000567283,-0.017227997,-0.202562704,5.243596353,-0.089409492,Subject A,Distracted
-0.000431332,0.211160188,-0.188506939,5.997081801,-0.190340535,Subject A,Distracted
-0.00029526,-0.054340912,-0.210340175,5.795097789,-0.252557721,Subject A,Distracted
