timestamps,TP9,AF7,AF8,TP10,Subject,Emotion
0.153356145,-0.321108974,-0.145517307,-0.428725094,-0.177379229,Subject B,Distracted
0.152069199,0.026181699,-0.148749995,1.174527078,-0.185971789,Subject B,Distracted
0.150767873,0.264005015,-0.120680253,1.437318013,-0.151801273,Subject B,Distracted
0.149452485,0.238843326,-0.078174552,-0.266927415,-0.177917448,Subject B,Distracted
0.148123354,0.113470221,-0.034810902,-2.109395433,-0.262722822,Subject B,Distracted
0.146780799,0.113600815,0.002267701,-2.058308817,-0.315826671,Subject B,Distracted
0.145425139,0.219449264,0.022258479,-0.475059339,-0.290939544,Subject B,Distracted
0.144056696,0.228589114,0.01646172,0.326698326,-0.24382953,Subject B,Distracted
0.142675791,0.080433942,-0.002853678,-0.909366515,-0.241057594,Subject B,Distracted
0.141282748,-0.028297446,-0.0049921,-2.660893526,-0.250158519,Subject B,Distracted
0.139877887,0.096747639,0.0280013,-2.51699323,-0.164873251,Subject B,Distracted
0.138461529,0.369963495,0.079442391,-0.347185455,0.059476624,Subject B,Distracted
0.137033995,0.517571398,0.113310567,1.357043706,0.333896333,Subject B,Distracted
0.135595604,0.430340277,0.105910483,0.520367138,0.523778304,Subject B,Distracted
0.134146673,0.30624818,0.059524509,-1.912316191,0.585567065,Subject B,Distracted
0.132687519,0.375794873,-0.004376541,-3.11689389,0.580006376,Subject B,Distracted
0.131218456,0.564325611,-0.056039998,-1.836499899,0.563009039,Subject B,Distracted
0.129739797,0.556360757,-0.070346516,0.195967372,0.516722707,Subject B,Distracted
0.128251852,0.210077332,-0.044254229,0.555057687,0.407911449,Subject B,Distracted
0.126754931,-0.211156824,-0.003271237,-0.883868602,0.271527374,Subject B,Distracted
0.125249341,-0.320136572,0.017757992,-2.029549827,0.190405825,Subject B,Distracted
0.123735388,-0.071844891,0.003710193,-1.430129675,0.198324343,Subject B,Distracted
0.122213376,0.179104996,-0.03169316,-0.074664081,0.238582389,Subject B,Distracted
0.120683608,0.116988665,-0.061626521,0.110442545,0.231498533,Subject B,Distracted
0.119146386,-0.157010531,-0.066615952,-1.089467068,0.165840214,Subject B,Distracted
0.11760201,-0.288887973,-0.044205607,-1.938398118,0.103521387,Subject B,Distracted
0.116050776,-0.147020955,-0.006803863,-1.15385199,0.090053516,Subject B,Distracted
0.114492984,0.023186751,0.029089844,0.350908687,0.076920215,Subject B,Distracted
0.112928929,-0.047399938,0.055865496,0.736662662,-0.037938015,Subject B,Distracted
0.111358907,-0.281896232,0.078807574,-0.269180292,-0.276399212,Subject B,Distracted
0.109783212,-0.366523492,0.106889832,-1.108239934,-0.508253149,Subject B,Distracted
0.108202136,-0.177908659,0.140742068,-0.664909122,-0.554738649,Subject B,Distracted
0.106615971,0.055166743,0.170809888,0.171342846,-0.375858436,Subject B,Distracted
0.105025008,0.065869262,0.186201638,-0.132616083,-0.121821459,Subject B,Distracted
0.103429536,-0.100217126,0.183008707,-1.408162936,0.025982532,Subject B,Distracted
0.101829841,-0.170835325,0.163083166,-1.819505785,0.03767511,Subject B,Distracted
0.100226211,-0.030040913,0.127359382,-0.367082994,0.025389275,Subject B,Distracted
0.098618931,0.131988091,0.075557843,1.517734285,0.076640762,Subject B,Distracted
0.097008286,0.087110314,0.014612076,1.590360142,0.15298847,Subject B,Distracted
0.095394558,-0.123687931,-0.037090634,-0.325571141,0.159772432,Subject B,Distracted
0.093778029,-0.248437214,-0.059813109,-1.962305892,0.065926848,Subject B,Distracted
0.092158977,-0.155603869,-0.047309691,-1.388379729,-0.077642465,Subject B,Distracted
0.090537677,0.000635285,-0.009333861,0.5327821,-0.216964952,Subject B,Distracted
0.088914402,-0.005192903,0.038815725,1.22755336,-0.35671305,Subject B,Distracted
0.087289424,-0.154357033,0.085583918,-0.252019039,-0.530910267,Subject B,Distracted
0.085663008,-0.183081338,0.123867086,-1.95643625,-0.722536641,Subject B,Distracted
0.08403542,0.081402039,0.149031104,-1.568362635,-0.841061646,Subject B,Distracted
0.082406922,0.466794323,0.160297346,0.550205639,-0.809902162,Subject B,Distracted
0.080777773,0.627327313,0.162800948,1.851243854,-0.667993243,Subject B,Distracted
0.07914823,0.4544886,0.165119704,0.981251763,-0.5412374,Subject B,Distracted
0.077518546,0.214126565,0.173385122,-0.500514277,-0.500996942,Subject B,Distracted
0.075888972,0.22086592,0.187354851,-0.329822599,-0.494985758,Subject B,Distracted
0.074259757,0.451208288,0.200432208,1.397884999,-0.446305812,Subject B,Distracted
0.072631143,0.586780164,0.20256648,2.426841669,-0.375742759,Subject B,Distracted
0.071003375,0.428543922,0.186565972,1.406313771,-0.368462412,Subject B,Distracted
0.06937669,0.143641877,0.155759844,-0.350945608,-0.438731267,Subject B,Distracted
0.067751324,0.034397095,0.123680888,-0.65564939,-0.497735658,Subject B,Distracted
0.066127511,0.149956638,0.100931946,0.73092149,-0.472547489,Subject B,Distracted
0.064505477,0.250593394,0.082295821,1.942972208,-0.399559103,Subject B,Distracted
0.062885449,0.143328235,0.05213681,1.581463641,-0.360333535,Subject B,Distracted
0.061267649,-0.079428926,0.005057352,0.515730575,-0.364060821,Subject B,Distracted
0.059652295,-0.196487182,-0.042096964,0.564656504,-0.349747867,Subject B,Distracted
0.058039605,-0.155037638,-0.062950587,1.915247385,-0.292818817,Subject B,Distracted
0.056429792,-0.096906455,-0.047326699,2.81682937,-0.250382682,Subject B,Distracted
0.054823068,-0.119855717,-0.012792946,1.993497361,-0.282966374,Subject B,Distracted
0.053219643,-0.144090883,0.011380948,0.483385802,-0.372760498,Subject B,Distracted
0.051619725,-0.065597931,0.01287947,0.33138036,-0.449258419,Subject B,Distracted
0.050023519,0.051867347,0.00824841,1.830927699,-0.472836429,Subject B,Distracted
0.04843123,0.044456652,0.022961108,3.035304458,-0.461263413,Subject B,Distracted
0.046843062,-0.103636463,0.057764919,2.26135431,-0.442023477,Subject B,Distracted
0.045259215,-0.177499761,0.080535665,0.327404996,-0.411987392,Subject B,Distracted
0.043679886,0.041120981,0.060677821,-0.398317839,-0.359014268,Subject B,Distracted
0.042105273,0.494015284,0.011333573,1.070796094,-0.304910452,Subject B,Distracted
0.040535569,0.863949362,-0.013809602,3.149742722,-0.297181607,Subject B,Distracted
0.038970966,0.896108596,0.025950173,3.692271726,-0.346576405,Subject B,Distracted
0.037411652,0.657314771,0.111034543,2.597051143,-0.387636379,Subject B,Distracted
0.035857813,0.428180551,0.174635809,1.707276226,-0.325900353,Subject B,Distracted
0.034309635,0.37110057,0.16442524,2.233283239,-0.136462997,Subject B,Distracted
0.032767298,0.39459835,0.089847496,3.139559479,0.092200298,Subject B,Distracted
0.031230983,0.362369295,0.011445798,2.631024063,0.227358773,Subject B,Distracted
0.029700864,0.323661253,-0.011180114,0.734276917,0.210335951,Subject B,Distracted
0.028177115,0.426248506,0.03549939,-0.525424812,0.103944198,Subject B,Distracted
0.026659906,0.644776545,0.112232057,0.323516305,0.024818954,Subject B,Distracted
0.025149403,0.742172592,0.159039609,2.260132573,0.035079498,Subject B,Distracted
0.023645771,0.562365468,0.144525546,3.047460736,0.101032328,Subject B,Distracted
0.022149169,0.270101948,0.095741841,2.072710775,0.150583947,Subject B,Distracted
0.020659755,0.18598265,0.075970088,0.991898454,0.158266084,Subject B,Distracted
0.019177683,0.392378957,0.121140055,1.366419506,0.160798222,Subject B,Distracted
0.017703107,0.616728928,0.197341119,2.530460145,0.190964397,Subject B,Distracted
0.016236175,0.570735298,0.231965206,2.555568809,0.222336644,Subject B,Distracted
0.014777036,0.32558732,0.190961364,0.936895824,0.204130791,Subject B,Distracted
0.013325833,0.2240986,0.116178309,-0.653661096,0.139046432,Subject B,Distracted
0.011882708,0.426608217,0.080503475,-0.530443492,0.090411186,Subject B,Distracted
0.010447798,0.688105795,0.114847478,0.821736424,0.099654292,Subject B,Distracted
0.009021238,0.668372834,0.187617926,1.39932821,0.122721139,Subject B,Distracted
0.007603158,0.36573039,0.247003795,0.294920911,0.075682946,Subject B,Distracted
0.006193685,0.108863462,0.268696006,-1.11809768,-0.064406618,Subject B,Distracted
0.004792943,0.135649706,0.263870917,-0.973814723,-0.23480155,Subject B,Distracted
0.003401054,0.310997183,0.255182489,0.611485852,-0.367847181,Subject B,Distracted
0.002018135,0.323686919,0.251941254,1.608394229,-0.457690838,Subject B,Distracted
0.0006443,0.087704495,0.243927788,0.67372732,-0.517570171,Subject B,Distracted
-0.000720338,-0.157809815,0.215339249,-1.095361789,-0.507057956,Subject B,Distracted
-0.002075672,-0.160285079,0.165521294,-1.620049149,-0.364471699,Subject B,Distracted
-0.003421597,0.025283552,0.115665686,-0.619174975,-0.114279067,Subject B,Distracted
-0.004758008,0.115889641,0.093523101,0.026324565,0.114741123,Subject B,Distracted
-0.006084806,-0.020834399,0.111911479,-1.142584447,0.210895957,Subject B,Distracted
-0.007401893,-0.18543453,0.160495361,-3.091927415,0.192724997,Subject B,Distracted
-0.00870917,-0.112223879,0.212609842,-3.557218839,0.168876287,Subject B,Distracted
-0.010006545,0.163894311,0.239267657,-2.015780174,0.192357766,Subject B,Distracted
-0.011293923,0.334625531,0.225320606,-0.428524015,0.186965556,Subject B,Distracted
-0.012571213,0.21108668,0.179045522,-0.719285227,0.043196926,Subject B,Distracted
-0.013838327,-0.044522474,0.124278317,-2.302024231,-0.218432307,Subject B,Distracted
-0.015095177,-0.156047255,0.081097374,-2.970542517,-0.421009527,Subject B,Distracted
-0.016341677,-0.104483786,0.055481465,-1.976333904,-0.407494318,Subject B,Distracted
-0.017577744,-0.123651432,0.044200876,-1.09225811,-0.226459475,Subject B,Distracted
-0.018803294,-0.343111983,0.040829343,-2.133178898,-0.086151879,Subject B,Distracted
-0.020018247,-0.590671738,0.035435376,-4.288562003,-0.116767861,Subject B,Distracted
-0.021222524,-0.634360365,0.018753031,-4.996736577,-0.240282696,Subject B,Distracted
-0.022416045,-0.520866052,-0.005042573,-3.308038176,-0.30657605,Subject B,Distracted
-0.023598733,-0.522650362,-0.015851299,-1.23103968,-0.292574127,Subject B,Distracted
-0.024770511,-0.747779193,0.000311679,-1.18766908,-0.293067689,Subject B,Distracted
-0.025931303,-0.954530102,0.027022976,-2.906390808,-0.346623719,Subject B,Distracted
-0.027081035,-0.8577034,0.027503008,-3.846297032,-0.368814561,Subject B,Distracted
-0.028219634,-0.536436349,-0.013870753,-2.552611829,-0.287748645,Subject B,Distracted
-0.029347028,-0.384440254,-0.066705285,-0.502555438,-0.174479247,Subject B,Distracted
-0.030463149,-0.6410919,-0.081145735,-0.095658559,-0.168983426,Subject B,Distracted
-0.031567929,-1.102066277,-0.04044728,-1.55016482,-0.292366124,Subject B,Distracted
-0.0326613,-1.371205879,0.018864595,-2.753904204,-0.398461135,Subject B,Distracted
-0.033743197,-1.315977608,0.042677276,-2.078683572,-0.339815743,Subject B,Distracted
-0.034813557,-1.161174915,0.011885709,-0.368440174,-0.146147887,Subject B,Distracted
-0.035872318,-1.152044251,-0.044330534,0.359007546,0.003329328,Subject B,Distracted
-0.036919421,-1.249896628,-0.08367567,-0.407567044,-0.024065158,Subject B,Distracted
-0.037954807,-1.233840171,-0.089248366,-1.130585818,-0.182159818,Subject B,Distracted
-0.038978423,-1.039615775,-0.070079802,-0.383641697,-0.311206113,Subject B,Distracted
-0.039990214,-0.867541644,-0.035118128,1.224997518,-0.302547853,Subject B,Distracted
-0.04099013,-0.903018021,0.017923188,1.905197782,-0.184416378,Subject B,Distracted
-0.041978123,-1.02509833,0.087087793,1.150687304,-0.066465983,Subject B,Distracted
-0.042954145,-0.932986796,0.153253905,0.454470411,-0.023307684,Subject B,Distracted
-0.043918151,-0.571102613,0.191599401,1.214961254,-0.034687724,Subject B,Distracted
-0.044870097,-0.283457285,0.191422595,2.661015818,-0.030532654,Subject B,Distracted
-0.045809941,-0.433551555,0.15974559,2.75323623,0.015976434,Subject B,Distracted
-0.046737642,-0.937622784,0.11132595,0.988836559,0.055424913,Subject B,Distracted
-0.047653163,-1.314143281,0.063912725,-0.681002591,0.034558425,Subject B,Distracted
-0.048556465,-1.209121059,0.041321639,-0.194802769,-0.013264688,Subject B,Distracted
-0.04944751,-0.762421669,0.067060494,1.990006655,0.009004955,Subject B,Distracted
-0.050326262,-0.401438337,0.140817993,3.416771108,0.132326927,Subject B,Distracted
-0.051192689,-0.354631275,0.222279212,2.675163233,0.253543581,Subject B,Distracted
-0.052046756,-0.465715602,0.255127494,1.066980073,0.239568127,Subject B,Distracted
-0.052888434,-0.467235269,0.219770451,0.772960936,0.084022982,Subject B,Distracted
-0.053717695,-0.319002568,0.155714614,1.972183228,-0.084465143,Subject B,Distracted
-0.054534512,-0.197908173,0.120516024,2.725035665,-0.151183202,Subject B,Distracted
-0.05533886,-0.213237984,0.131047172,1.730842442,-0.131024328,Subject B,Distracted
-0.056130717,-0.264511865,0.156539594,0.208020968,-0.115777748,Subject B,Distracted
-0.056910062,-0.218816344,0.165393576,0.313122578,-0.135881245,Subject B,Distracted
-0.057676878,-0.123583997,0.161555882,2.185091055,-0.119636946,Subject B,Distracted
-0.058431148,-0.139243604,0.167647275,3.602220942,-0.001688529,Subject B,Distracted
-0.059172858,-0.290274154,0.184892325,2.790481753,0.164417576,Subject B,Distracted
-0.059901998,-0.394108212,0.185673133,0.720844232,0.246104622,Subject B,Distracted
-0.060618558,-0.28848235,0.145718982,-0.117440204,0.17958707,Subject B,Distracted
-0.061322529,-0.071627826,0.071461153,1.14027862,0.034418754,Subject B,Distracted
-0.062013905,-0.024325305,-0.008243903,2.753508141,-0.079867121,Subject B,Distracted
-0.062692679,-0.26969387,-0.066210738,2.74385552,-0.126103244,Subject B,Distracted
-0.063358849,-0.581120608,-0.085595972,1.412854189,-0.129174548,Subject B,Distracted
-0.064012409,-0.607086131,-0.057276765,0.731730456,-0.09670151,Subject B,Distracted
-0.064653356,-0.270237785,0.012578139,1.580486932,-0.013309988,Subject B,Distracted
-0.065281687,0.145757173,0.091105794,2.639288458,0.091193382,Subject B,Distracted
-0.065897398,0.331588276,0.131732821,2.355824278,0.13603547,Subject B,Distracted
-0.066500486,0.284348248,0.113271356,1.182378637,0.088884338,Subject B,Distracted
-0.067090947,0.228056913,0.065312194,0.982773039,0.030945271,Subject B,Distracted
-0.067668775,0.269440511,0.044005423,2.425593575,0.072093159,Subject B,Distracted
-0.068233966,0.275651658,0.076415606,3.915520349,0.214036432,Subject B,Distracted
-0.068786516,0.124191396,0.133365256,3.557910531,0.344354151,Subject B,Distracted
-0.06932642,-0.061024907,0.162472409,1.623923083,0.368323057,Subject B,Distracted
-0.069853672,-0.052237746,0.142229805,0.286341379,0.305123446,Subject B,Distracted
-0.070368268,0.148248732,0.094940897,0.91320271,0.239017213,Subject B,Distracted
-0.070870202,0.268058013,0.052535517,2.384372353,0.210842719,Subject B,Distracted
-0.071359469,0.110793422,0.025593214,2.613076908,0.189802635,Subject B,Distracted
-0.071836061,-0.168001355,0.007840915,1.304940397,0.138106514,Subject B,Distracted
-0.072299972,-0.247092724,-0.005483325,0.338977813,0.065730582,Subject B,Distracted
-0.072751196,-0.063173263,-0.015554712,1.245086699,0.008855665,Subject B,Distracted
-0.073189726,0.099849703,-0.028787721,3.103219514,-0.019325299,Subject B,Distracted
-0.073615555,0.00360387,-0.055310007,3.686739825,-0.025656396,Subject B,Distracted
-0.074028678,-0.190543818,-0.097275238,2.384747159,0.004348237,Subject B,Distracted
-0.074429088,-0.118063317,-0.143303019,1.016811001,0.096943986,Subject B,Distracted
-0.074816782,0.270429418,-0.174131679,1.398056945,0.219332601,Subject B,Distracted
-0.075191755,0.578440243,-0.17258842,2.869682459,0.26772224,Subject B,Distracted
-0.075554006,0.437830335,-0.134472628,3.135232984,0.183108038,Subject B,Distracted
-0.075903536,-0.019968136,-0.076382031,1.354494801,0.05872271,Subject B,Distracted
-0.076240346,-0.317197562,-0.027723194,-0.613372588,0.062059216,Subject B,Distracted
-0.076564436,-0.206424832,-0.005071843,-0.516795215,0.23093282,Subject B,Distracted
-0.076875806,0.06491714,0.00413988,1.421389291,0.398354045,Subject B,Distracted
-0.077174463,0.100412282,0.023676411,2.811116671,0.360985477,Subject B,Distracted
-0.07746042,-0.165326727,0.056311745,2.142784741,0.101262706,Subject B,Distracted
-0.077733688,-0.440728928,0.080853749,0.578621536,-0.19804205,Subject B,Distracted
-0.07799427,-0.476922155,0.080940193,0.224513314,-0.357828499,Subject B,Distracted
-0.078242165,-0.353157275,0.062456137,1.304734346,-0.382365334,Subject B,Distracted
-0.078477389,-0.314576505,0.038043079,2.016890176,-0.416125276,Subject B,Distracted
-0.078699984,-0.42410417,0.009942192,1.115949505,-0.547402099,Subject B,Distracted
-0.078909986,-0.497054182,-0.020370241,-0.383879642,-0.695889894,Subject B,Distracted
-0.079107387,-0.378722138,-0.0380444,-0.654515131,-0.708872406,Subject B,Distracted
-0.079292145,-0.167863188,-0.028744291,0.430554442,-0.545006801,Subject B,Distracted
-0.079464272,-0.077693438,-0.003307464,1.148841201,-0.329004427,Subject B,Distracted
-0.079623896,-0.126468872,0.009880297,0.287066524,-0.216775985,Subject B,Distracted
-0.079771161,-0.09299765,0.001468851,-1.201622764,-0.231783583,Subject B,Distracted
-0.079906014,0.173364386,-0.004497986,-1.442821483,-0.259083481,Subject B,Distracted
-0.080028199,0.491579498,0.018983622,-0.141210345,-0.187470189,Subject B,Distracted
-0.080137618,0.518489809,0.067679196,0.96143948,-0.017891331,Subject B,Distracted
-0.080234704,0.180539471,0.111664404,0.341539666,0.178344078,Subject B,Distracted
-0.080320102,-0.179535147,0.126811772,-1.247130724,0.364162624,Subject B,Distracted
-0.0803937,-0.166816503,0.111239027,-1.711414364,0.553019069,Subject B,Distracted
-0.08045428,0.212511913,0.078715372,-0.444552605,0.732853157,Subject B,Distracted
-0.080500951,0.567599342,0.048915018,0.747723692,0.828665629,Subject B,Distracted
-0.080535152,0.589979672,0.040110595,0.01374318,0.77310165,Subject B,Distracted
-0.080559946,0.386010206,0.057247626,-1.985722859,0.595281769,Subject B,Distracted
-0.080575692,0.272208849,0.084826076,-2.831417798,0.402642399,Subject B,Distracted
-0.080577216,0.334750137,0.099623792,-1.49979568,0.267062227,Subject B,Distracted
-0.080559014,0.348371511,0.091221162,0.2462819,0.15696188,Subject B,Distracted
-0.08052542,0.136045844,0.064403123,0.076664737,0.003252883,Subject B,Distracted
-0.080490984,-0.159781117,0.025795299,-1.955973192,-0.191446423,Subject B,Distracted
-0.080462139,-0.277674663,-0.019097295,-3.514854837,-0.352923436,Subject B,Distracted
-0.080417203,-0.210194256,-0.054919181,-2.946084348,-0.444031116,Subject B,Distracted
-0.080315842,-0.208760268,-0.058181245,-1.301445772,-0.52053988,Subject B,Distracted
-0.080140037,-0.409481409,-0.020781367,-0.882503703,-0.644320549,Subject B,Distracted
-0.079922644,-0.609449205,0.03566107,-2.246011852,-0.775566569,Subject B,Distracted
-0.079723632,-0.5220535,0.079951863,-3.547711828,-0.805527586,Subject B,Distracted
-0.079575863,-0.178460731,0.102293991,-3.017487578,-0.692051973,Subject B,Distracted
-0.079461334,0.076896641,0.115770385,-1.269187306,-0.511069195,Subject B,Distracted
-0.079339733,0.019650746,0.131094017,-0.426754532,-0.353667103,Subject B,Distracted
-0.079189405,-0.149099056,0.143278273,-1.308496361,-0.211422041,Subject B,Distracted
-0.079016816,-0.036384073,0.14457862,-2.453237759,-0.007471426,Subject B,Distracted
-0.078836557,0.448077854,0.137691923,-2.214669323,0.264746517,Subject B,Distracted
-0.078653006,0.953476998,0.130122461,-1.000894226,0.480575811,Subject B,Distracted
-0.078460708,1.080830135,0.124518703,-0.629086152,0.499365885,Subject B,Distracted
-0.078254545,0.825869176,0.120669215,-1.768395018,0.332811723,Subject B,Distracted
-0.078034937,0.541865104,0.118820996,-3.012473828,0.157216591,Subject B,Distracted
-0.077805009,0.499504204,0.114035842,-2.799896573,0.135198362,Subject B,Distracted
-0.07756627,0.606942121,0.095491883,-1.503736635,0.247880959,Subject B,Distracted
-0.077317903,0.607748754,0.061509848,-0.869230438,0.331125933,Subject B,Distracted
-0.077058767,0.4452859,0.030418891,-1.62981122,0.261040074,Subject B,Distracted
-0.076788832,0.305756661,0.025718646,-2.541197338,0.067651526,Subject B,Distracted
-0.076508829,0.325560791,0.051043441,-2.095817345,-0.128258906,Subject B,Distracted
-0.076219279,0.395157444,0.086983205,-0.588746548,-0.243134699,Subject B,Distracted
-0.075920178,0.32475575,0.111093327,0.238620353,-0.272396901,Subject B,Distracted
-0.075611366,0.129602277,0.113338818,-0.471564926,-0.237426886,Subject B,Distracted
-0.075292892,0.036208207,0.092742091,-1.493775787,-0.138991069,Subject B,Distracted
-0.074965003,0.188266088,0.050676243,-1.128349269,0.02072226,Subject B,Distracted
-0.074627937,0.434708825,-0.002963239,0.445850287,0.18995225,Subject B,Distracted
-0.074281817,0.491987114,-0.041913381,1.26381796,0.275116558,Subject B,Distracted
-0.073926719,0.296163173,-0.037789765,0.128269391,0.219564292,Subject B,Distracted
-0.07356275,0.099320342,0.008993734,-1.706958898,0.06994681,Subject B,Distracted
-0.073190071,0.170687439,0.060992554,-2.012680265,-0.058044203,Subject B,Distracted
-0.072808845,0.469028222,0.077974134,-0.363208059,-0.087616326,Subject B,Distracted
-0.072419215,0.70179313,0.056618275,1.369073622,-0.040467294,Subject B,Distracted
-0.07202131,0.688749299,0.026343293,1.417945627,0.015275521,Subject B,Distracted
-0.071615264,0.552525653,0.007915406,0.294392323,0.053084739,Subject B,Distracted
-0.071201223,0.505723601,-0.009893082,-0.053440632,0.102109418,Subject B,Distracted
