timestamps,TP9,AF7,AF8,TP10,Subject,Emotion
0.014385672,-0.153217187,0.113924569,-0.078520748,0.038299269,Subject C,Distracted
0.014416995,-0.332201071,0.114345533,-0.084071627,-0.111454143,Subject C,Distracted
0.014449157,-0.112615371,0.144896584,-0.073587341,-0.066170005,Subject C,Distracted
0.014482171,0.288198013,0.185336513,-0.04873271,0.169176615,Subject C,Distracted
0.014516046,0.502000042,0.042556016,-0.023961602,0.371334989,Subject C,Distracted
0.01455079,0.422737553,-0.358506028,-0.007810581,0.387403099,Subject C,Distracted
0.014586411,0.270345715,-0.745175628,0.00858144,0.309003272,Subject C,Distracted
0.014622912,0.274003523,-0.713318364,0.036229832,0.311960041,Subject C,Distracted
0.014660299,0.403730361,-0.204545222,0.065219116,0.402121672,Subject C,Distracted
0.014698575,0.466807534,0.328086405,0.066096456,0.416950404,Subject C,Distracted
0.01473774,0.395632181,0.333031806,0.019865236,0.270842009,Subject C,Distracted
0.014777795,0.335785231,-0.245258768,-0.053963647,0.103700301,Subject C,Distracted
0.014818741,0.438720609,-0.857995011,-0.105630289,0.126322764,Subject C,Distracted
0.014860575,0.648584167,-0.918486029,-0.099870534,0.36062326,Subject C,Distracted
0.014903297,0.759699215,-0.456563056,-0.05357375,0.605672928,Subject C,Distracted
0.014946905,0.662758253,-0.086439235,-0.020194975,0.657652152,Subject C,Distracted
0.014991396,0.465541021,-0.266809423,-0.031606619,0.500341985,Subject C,Distracted
0.015036766,0.348013221,-0.732988809,-0.063850447,0.267945029,Subject C,Distracted
0.01508301,0.350564022,-0.837218438,-0.069549515,0.089794197,Subject C,Distracted
0.015130122,0.362541947,-0.374676571,-0.036364095,0.017291392,Subject C,Distracted
0.015178093,0.302165755,0.193751145,0.00292706,0.054212839,Subject C,Distracted
0.015226914,0.230098182,0.39417875,0.017781246,0.182445615,Subject C,Distracted
0.01527657,0.243731594,0.333128369,0.01697302,0.34494325,Subject C,Distracted
0.01532705,0.308685435,0.422058085,0.025979715,0.442189563,Subject C,Distracted
0.015378336,0.275967675,0.693495511,0.041485213,0.380591432,Subject C,Distracted
0.01543041,0.079535545,0.730888614,0.030769493,0.14482511,Subject C,Distracted
0.015483252,-0.149581007,0.306801729,-0.021980642,-0.168651866,Subject C,Distracted
0.015536839,-0.223013774,-0.200931472,-0.086688302,-0.406690135,Subject C,Distracted
0.015591149,-0.123757247,-0.218194566,-0.116569358,-0.481582266,Subject C,Distracted
0.015646157,-0.02458608,0.330693924,-0.099969642,-0.448409331,Subject C,Distracted
0.015701835,-0.057236322,0.943076815,-0.070930074,-0.434325101,Subject C,Distracted
0.015758155,-0.126923538,1.146328768,-0.066232344,-0.472846468,Subject C,Distracted
0.015815088,-0.031732499,1.00797202,-0.081956122,-0.441532914,Subject C,Distracted
0.015872604,0.24577677,0.940371927,-0.08260502,-0.213458319,Subject C,Distracted
0.01593067,0.46068383,1.108725004,-0.051558346,0.139269324,Subject C,Distracted
0.015989254,0.380153758,1.222919175,-0.020212495,0.361731952,Subject C,Distracted
0.016048319,0.084914171,0.955357057,-0.036438991,0.278153251,Subject C,Distracted
0.016107831,-0.101087976,0.408282743,-0.105419126,0.000290057,Subject C,Distracted
0.016167751,0.003750715,0.017377847,-0.173643692,-0.192429462,Subject C,Distracted
0.016228041,0.21819857,0.031079692,-0.181510842,-0.181251563,Subject C,Distracted
0.016288659,0.236289573,0.239658247,-0.12794674,-0.135647007,Subject C,Distracted
0.016349561,0.021215112,0.281549747,-0.069765536,-0.258255303,Subject C,Distracted
0.0164107,-0.158106315,0.116244248,-0.053370924,-0.472031334,Subject C,Distracted
0.016472027,-0.079783816,0.060736396,-0.061099843,-0.484746634,Subject C,Distracted
0.016533488,0.168158364,0.353066384,-0.038689835,-0.176369969,Subject C,Distracted
0.016595029,0.338851069,0.813360831,0.032927724,0.199959851,Subject C,Distracted
0.016656589,0.34817342,1.058375863,0.114643407,0.293895613,Subject C,Distracted
0.016718108,0.333432564,1.002104833,0.159136752,0.076495165,Subject C,Distracted
0.016779524,0.412449893,0.956536579,0.159804934,-0.131809007,Subject C,Distracted
0.016840769,0.507696715,1.152172157,0.137215438,-0.059268172,Subject C,Distracted
0.016901775,0.479830248,1.325202536,0.099464768,0.201747464,Subject C,Distracted
0.016962473,0.371166121,0.999877345,0.043562725,0.350842156,Subject C,Distracted
0.017022794,0.397549773,0.157993711,-0.011959782,0.278702576,Subject C,Distracted
0.017082667,0.664581079,-0.598990166,-0.028061651,0.183463017,Subject C,Distracted
0.017142017,0.978966317,-0.670464428,0.009487042,0.277209854,Subject C,Distracted
0.017200761,1.037403649,-0.110674831,0.064711427,0.496000776,Subject C,Distracted
0.017258818,0.785442178,0.490481534,0.088537082,0.595607647,Subject C,Distracted
0.017316117,0.491267237,0.717560831,0.074241948,0.484687876,Subject C,Distracted
0.017372588,0.429148957,0.721130335,0.060179841,0.338453133,Subject C,Distracted
0.017428147,0.568390933,0.853487228,0.077587331,0.348732488,Subject C,Distracted
0.017482685,0.654616797,1.110295125,0.110682259,0.464509101,Subject C,Distracted
0.0175361,0.561662996,1.133100667,0.116956839,0.48000026,Subject C,Distracted
0.017588336,0.448006734,0.725632992,0.079097212,0.335376546,Subject C,Distracted
0.017639372,0.518856168,0.163682304,0.024991543,0.199827845,Subject C,Distracted
0.017689135,0.722574465,-0.10869324,-0.004632568,0.223596,Subject C,Distracted
0.01773744,0.798694848,0.009304031,0.000557751,0.317173328,Subject C,Distracted
0.017784092,0.620553225,0.205159573,0.015933672,0.270036971,Subject C,Distracted
0.017829089,0.371621235,0.186765171,0.016057774,0.03769279,Subject C,Distracted
0.017872641,0.308103998,0.050002048,0.002638622,-0.201133447,Subject C,Distracted
0.017914799,0.412747774,0.118680128,-0.005954856,-0.282125108,Subject C,Distracted
0.017955086,0.404551176,0.48029959,-0.00397112,-0.249469178,Subject C,Distracted
0.017992814,0.115962734,0.827608749,-0.004111994,-0.253151317,Subject C,Distracted
0.018028051,-0.24242167,0.814691436,-0.014463366,-0.321402057,Subject C,Distracted
0.018061975,-0.295676057,0.46651019,-0.024053569,-0.33514114,Subject C,Distracted
0.018095439,0.0447197,0.117625378,-0.020306701,-0.219796924,Subject C,Distracted
0.018126967,0.461708808,-0.01260639,-0.011174072,-0.063286084,Subject C,Distracted
0.018153465,0.603020673,-0.019348589,-0.0144442,0.003586305,Subject C,Distracted
0.018174545,0.468017541,-0.035246357,-0.025295198,-0.018018044,Subject C,Distracted
0.018195351,0.330760614,0.068445412,-0.012031724,-0.013118144,Subject C,Distracted
0.018221367,0.344318136,0.496002704,0.042554146,0.070307864,Subject C,Distracted
0.018248239,0.376053309,1.08519769,0.10464077,0.144437324,Subject C,Distracted
0.018261397,0.272100485,1.307278888,0.115064537,0.123004496,Subject C,Distracted
0.018254394,0.140141712,0.855687642,0.057563396,0.08110139,Subject C,Distracted
0.0182489,0.21219367,0.10838098,-0.014175579,0.176264509,Subject C,Distracted
0.018285239,0.46108531,-0.20114944,-0.033598822,0.401774295,Subject C,Distracted
0.018381425,0.562479736,0.200800906,-0.002166641,0.539684363,Subject C,Distracted
0.018504602,0.362521177,0.781135722,0.004360832,0.467839431,Subject C,Distracted
0.018594802,0.224946819,0.762502984,-0.077964193,0.428529848,Subject C,Distracted
0.018619168,0.641069039,-0.019552875,-0.215669797,0.774797698,Subject C,Distracted
0.018595715,1.477575456,-0.920295232,-0.294801715,1.401500609,Subject C,Distracted
0.018564767,1.897891948,-1.161891399,-0.229346153,1.663090263,Subject C,Distracted
0.018547999,1.233204687,-0.632787273,-0.04327727,1.060098624,Subject C,Distracted
0.018538963,-0.214403739,0.055438105,0.15967143,-0.111480805,Subject C,Distracted
0.018523091,-1.470418555,0.272866006,0.292654758,-1.021708981,Subject C,Distracted
0.018496033,-1.942011087,-0.004908548,0.339604353,-1.187483529,Subject C,Distracted
0.018463272,-1.945558513,-0.356023052,0.330484312,-0.901982735,Subject C,Distracted
0.018429959,-2.149578653,-0.558268278,0.29617452,-0.782130888,Subject C,Distracted
0.018395714,-2.727845506,-0.83424969,0.25728798,-1.077691957,Subject C,Distracted
0.018357449,-3.254851398,-1.408165298,0.234317417,-1.518201675,Subject C,Distracted
0.018313701,-3.345600745,-2.049996896,0.243174139,-1.72841552,Subject C,Distracted
0.018265339,-3.158369177,-2.281866887,0.278587704,-1.652384359,Subject C,Distracted
0.018213555,-3.165791226,-1.987668104,0.315135847,-1.544687705,Subject C,Distracted
0.018158439,-3.541690765,-1.604974386,0.331225643,-1.613117029,Subject C,Distracted
0.018099322,-3.931267223,-1.624524034,0.328152861,-1.756350961,Subject C,Distracted
0.01803575,-3.867041609,-2.015249167,0.322819942,-1.705635509,Subject C,Distracted
0.017967799,-3.322228355,-2.282117945,0.324266936,-1.389198681,Subject C,Distracted
0.017895703,-2.74033396,-2.074151182,0.319998026,-1.044952178,Subject C,Distracted
0.017819493,-2.512902534,-1.584715764,0.287666166,-0.919659846,Subject C,Distracted
0.017739001,-2.55010831,-1.260116134,0.223248421,-0.949411781,Subject C,Distracted
0.017654075,-2.460615072,-1.231236712,0.154993808,-0.851162804,Subject C,Distracted
0.017564677,-2.073134633,-1.238263007,0.120447298,-0.496043561,Subject C,Distracted
0.017470822,-1.618116334,-1.10620339,0.127732139,-0.065049479,Subject C,Distracted
0.01737249,-1.3807751,-1.035285882,0.148301922,0.189776377,Subject C,Distracted
0.017269615,-1.333442241,-1.269462726,0.150859352,0.229670622,Subject C,Distracted
0.017162127,-1.219067602,-1.64988904,0.133709422,0.205569127,Subject C,Distracted
0.017049983,-0.914135409,-1.731941633,0.119614997,0.227318567,Subject C,Distracted
0.016933155,-0.566189203,-1.329637933,0.126195176,0.269386997,Subject C,Distracted
0.016811613,-0.367933949,-0.755322592,0.147627023,0.299704949,Subject C,Distracted
0.016685319,-0.31666347,-0.4364993,0.164075299,0.387561045,Subject C,Distracted
0.016554233,-0.269669529,-0.416352562,0.164728992,0.606179028,Subject C,Distracted
0.016418324,-0.174391727,-0.397643622,0.156191348,0.869816483,Subject C,Distracted
0.016277567,-0.13781756,-0.254412554,0.14621753,0.963256723,Subject C,Distracted
0.01613194,-0.248826023,-0.26565505,0.128083239,0.775030628,Subject C,Distracted
0.01598142,-0.410583981,-0.684230638,0.092434863,0.461227043,Subject C,Distracted
0.015825987,-0.42720743,-1.228814265,0.050131851,0.314308578,Subject C,Distracted
0.015665626,-0.248201299,-1.291451128,0.026932146,0.453648141,Subject C,Distracted
0.015500322,-0.050148806,-0.69318315,0.031848932,0.688862352,Subject C,Distracted
0.015330067,-0.026380927,0.002274898,0.045160916,0.72978046,Subject C,Distracted
0.015154851,-0.135150466,0.088618147,0.045913338,0.509337651,Subject C,Distracted
0.014974668,-0.138203378,-0.485770988,0.039594766,0.242052593,Subject C,Distracted
0.014789513,0.091963735,-1.085956186,0.047172588,0.158338751,Subject C,Distracted
0.014599386,0.380203975,-1.115282087,0.073706334,0.247509623,Subject C,Distracted
0.014404287,0.440073369,-0.617620229,0.099067815,0.317584903,Subject C,Distracted
0.014204219,0.226908248,-0.123867684,0.097818229,0.275196591,Subject C,Distracted
0.013999187,-0.000579667,-0.025267132,0.062017215,0.256816789,Subject C,Distracted
0.013789198,-0.000857072,-0.224905045,0.006878838,0.438547302,Subject C,Distracted
0.013574261,0.156237083,-0.38644135,-0.040791149,0.765853283,Subject C,Distracted
0.013354387,0.202834837,-0.374911663,-0.060618561,0.959238336,Subject C,Distracted
0.013129589,0.047886952,-0.343657555,-0.048945933,0.817536936,Subject C,Distracted
0.012899881,-0.079849446,-0.441593745,-0.013588167,0.462212032,Subject C,Distracted
0.01266528,0.072965274,-0.575372065,0.036867897,0.215640563,Subject C,Distracted
0.012425804,0.419812589,-0.530674724,0.09176255,0.242991582,Subject C,Distracted
0.012181473,0.593378399,-0.271948843,0.129427532,0.383137496,Subject C,Distracted
0.011932309,0.390586141,-0.00816506,0.126112294,0.368874091,Subject C,Distracted
0.011678337,0.045039557,0.079557828,0.084321501,0.15775932,Subject C,Distracted
0.011419584,-0.036071057,0.074656777,0.041069068,-0.031093644,Subject C,Distracted
0.011156081,0.250272934,0.165522697,0.0326486,0.005080164,Subject C,Distracted
0.010887861,0.602576006,0.293450715,0.054790038,0.221576317,Subject C,Distracted
0.010614962,0.690254737,0.146173867,0.069857528,0.39743183,Subject C,Distracted
0.010337423,0.512720572,-0.411967837,0.052307307,0.366790512,Subject C,Distracted
0.010055286,0.322847262,-1.02745202,0.017368166,0.13288144,Subject C,Distracted
0.009768597,0.279342981,-1.13806753,0.003291385,-0.185525771,Subject C,Distracted
0.009477401,0.297056552,-0.58642835,0.030041056,-0.442265865,Subject C,Distracted
0.009181748,0.242029892,0.151099134,0.076718587,-0.521730843,Subject C,Distracted
0.008881688,0.156357301,0.437812189,0.099471479,-0.390460805,Subject C,Distracted
0.008577272,0.197817459,0.145601984,0.073679094,-0.12398082,Subject C,Distracted
0.008268555,0.389533513,-0.266200412,0.01783936,0.134726638,Subject C,Distracted
0.00795559,0.537770021,-0.362030955,-0.027862958,0.263292943,Subject C,Distracted
0.007638435,0.457609997,-0.258860326,-0.044481609,0.234604871,Subject C,Distracted
0.007317149,0.225509011,-0.389290269,-0.047868639,0.136133049,Subject C,Distracted
0.006991791,0.107645097,-0.827548358,-0.058954509,0.102544629,Subject C,Distracted
0.006662424,0.227992748,-1.112880044,-0.07310435,0.178860693,Subject C,Distracted
0.006329114,0.409183039,-0.842585936,-0.069897865,0.244758843,Subject C,Distracted
0.005991926,0.407701976,-0.236398727,-0.046320832,0.132320564,Subject C,Distracted
0.005650932,0.229900427,0.118626065,-0.023185448,-0.153463501,Subject C,Distracted
0.005306205,0.103653774,0.01163672,-0.015388067,-0.390176055,Subject C,Distracted
0.004957821,0.154405424,-0.172071963,-0.011466588,-0.372775778,Subject C,Distracted
0.004605858,0.23205511,-0.033963887,0.0060087,-0.157382307,Subject C,Distracted
0.004250399,0.121163596,0.278929188,0.030055319,0.002831957,Subject C,Distracted
0.003891527,-0.150275804,0.291725321,0.035686818,-0.044699719,Subject C,Distracted
0.003529328,-0.318955073,-0.140363401,0.0148931,-0.196603109,Subject C,Distracted
0.003163893,-0.209553362,-0.627912614,-0.010727106,-0.254755475,Subject C,Distracted
0.002795312,0.045458544,-0.736326715,-0.017792587,-0.167618055,Subject C,Distracted
0.002423678,0.178887792,-0.512517182,-0.009325466,-0.051380384,Subject C,Distracted
0.002049087,0.128289444,-0.3923362,-0.00412074,-0.014204932,Subject C,Distracted
0.001671637,0.089775715,-0.621925406,-0.004567804,-0.044950739,Subject C,Distracted
0.001291427,0.215344762,-0.917851311,0.008342538,-0.083524404,Subject C,Distracted
0.000908556,0.377619144,-0.80972873,0.041651415,-0.119247326,Subject C,Distracted
0.00052313,0.348488649,-0.260567633,0.065168953,-0.160304247,Subject C,Distracted
0.000135252,0.153271254,0.248910622,0.038849799,-0.15141292,Subject C,Distracted
-0.000254971,0.0737281,0.331132112,-0.031966261,-0.014880598,Subject C,Distracted
-0.000647427,0.242951277,0.18093365,-0.087541996,0.205757749,Subject C,Distracted
-0.001042007,0.388921457,0.228449877,-0.076127353,0.319357141,Subject C,Distracted
-0.001438595,0.137386083,0.432886154,-0.016644589,0.17556364,Subject C,Distracted
-0.001837078,-0.480508403,0.281674536,0.0207853,-0.139373043,Subject C,Distracted
-0.002237336,-0.990737755,-0.425210273,-0.002428594,-0.357073151,Subject C,Distracted
-0.002639252,-0.992680981,-1.116208023,-0.049099255,-0.293177942,Subject C,Distracted
-0.003042706,-0.603911497,-1.054792067,-0.05443888,-0.035673912,Subject C,Distracted
-0.003447576,-0.301181778,-0.284270176,-0.005130265,0.139477174,Subject C,Distracted
-0.00385374,-0.364614904,0.342510088,0.04718323,0.033820109,Subject C,Distracted
-0.004261076,-0.591169383,0.15092778,0.050906387,-0.283628996,Subject C,Distracted
-0.00466946,-0.594915872,-0.555274456,0.016757488,-0.540119222,Subject C,Distracted
-0.005078766,-0.297939592,-0.87123614,0.002398393,-0.518910151,Subject C,Distracted
-0.005488869,-0.002152255,-0.39004082,0.039543526,-0.262851415,Subject C,Distracted
-0.005899643,0.020671083,0.312194289,0.093805652,-0.013269341,Subject C,Distracted
-0.006310962,-0.128072088,0.388831458,0.107322869,0.050940689,Subject C,Distracted
-0.006722698,-0.13285618,-0.249397974,0.069929738,-0.013211621,Subject C,Distracted
-0.007134725,0.107499947,-0.854886024,0.028288385,-0.017886772,Subject C,Distracted
-0.007546917,0.341342038,-0.781434295,0.024431436,0.105532441,Subject C,Distracted
-0.007959145,0.270091265,-0.229754871,0.04744937,0.219421931,Subject C,Distracted
-0.008371283,-0.101649904,0.121343145,0.0590668,0.164407874,Subject C,Distracted
-0.008783204,-0.482809066,0.029628208,0.049858333,-0.022336892,Subject C,Distracted
-0.00919478,-0.621552001,-0.102073282,0.045546703,-0.145927002,Subject C,Distracted
-0.009605883,-0.542987649,0.07320615,0.060650851,-0.103352211,Subject C,Distracted
-0.010016384,-0.451957484,0.305939156,0.072153659,-0.003276357,Subject C,Distracted
-0.010426154,-0.458453953,0.135071594,0.052625071,0.012095358,Subject C,Distracted
-0.010835065,-0.464040519,-0.406642284,0.014837039,-0.011776684,Subject C,Distracted
-0.011242991,-0.325490307,-0.802469097,0.00253937,0.096073174,Subject C,Distracted
-0.011649804,-0.070898657,-0.747332969,0.035117025,0.358093711,Subject C,Distracted
-0.012055379,0.112621871,-0.528958252,0.078131453,0.546155413,Subject C,Distracted
-0.012459589,0.108862802,-0.573881155,0.081681483,0.422286464,Subject C,Distracted
-0.012862308,0.022488945,-0.822036951,0.04011264,0.034862876,Subject C,Distracted
-0.013263412,0.039912332,-0.809401112,-0.003528825,-0.311289816,Subject C,Distracted
-0.013662776,0.174465352,-0.338937228,-0.011960453,-0.387841863,Subject C,Distracted
-0.014060276,0.246367905,0.184539843,0.007177195,-0.270585363,Subject C,Distracted
-0.014455789,0.140168347,0.227756419,0.025456874,-0.191592692,Subject C,Distracted
-0.014849195,-0.014709704,-0.183599189,0.03868736,-0.228924442,Subject C,Distracted
-0.015240373,-0.007229932,-0.44989289,0.066123982,-0.239771477,Subject C,Distracted
-0.015629206,0.161280371,-0.114205335,0.1078521,-0.100572011,Subject C,Distracted
-0.016015575,0.265447116,0.537619755,0.125050631,0.091463432,Subject C,Distracted
-0.016399367,0.15925969,0.733907786,0.077576205,0.13082396,Subject C,Distracted
-0.016780466,-0.016054413,0.080368692,-0.022724904,-0.032948988,Subject C,Distracted
-0.017158763,-0.014116796,-0.937933622,-0.109227938,-0.240373252,Subject C,Distracted
-0.017534147,0.182502398,-1.402385293,-0.119679612,-0.329655041,Subject C,Distracted
-0.017906513,0.333457513,-0.893075453,-0.057449946,-0.306034074,Subject C,Distracted
-0.018275758,0.265514068,0.104086389,0.012707951,-0.263420696,Subject C,Distracted
-0.01864178,0.113000841,0.75678211,0.032492071,-0.215241027,Subject C,Distracted
-0.01900448,0.144911837,0.761471755,0.006099098,-0.092076525,Subject C,Distracted
-0.019363761,0.410572347,0.524377152,-0.01844776,0.108990873,Subject C,Distracted
-0.019719528,0.674126927,0.500094051,-0.014302107,0.260029747,Subject C,Distracted
-0.020071688,0.707358793,0.586489924,-0.003045648,0.230114842,Subject C,Distracted
-0.020420151,0.541797227,0.351196586,-0.014420751,0.043541738,Subject C,Distracted
-0.020764826,0.371164346,-0.268286029,-0.038819812,-0.137316739,Subject C,Distracted
-0.021105626,0.27733569,-0.776860858,-0.03806062,-0.191243617,Subject C,Distracted
-0.021442466,0.162799571,-0.719787339,0.001471023,-0.163441303,Subject C,Distracted
-0.021775262,-0.042638017,-0.254994961,0.046281026,-0.180580743,Subject C,Distracted
-0.022103931,-0.219278872,0.082202805,0.055707977,-0.262906367,Subject C,Distracted
-0.022428394,-0.186079654,0.084914037,0.032511011,-0.285772235,Subject C,Distracted
-0.022748572,0.048230152,0.06699026,0.016800288,-0.158911727,Subject C,Distracted
-0.023064387,0.254539231,0.305251888,0.030723432,0.008514387,Subject C,Distracted
-0.023375765,0.225608804,0.564031052,0.047953039,0.00082598,Subject C,Distracted
-0.023682631,0.001989773,0.396279358,0.030202243,-0.237147273,Subject C,Distracted
-0.023984913,-0.176337008,-0.202223077,-0.017031522,-0.496974877,Subject C,Distracted
-0.024282539,-0.131706866,-0.702992573,-0.044741023,-0.529903162,Subject C,Distracted
-0.024575439,0.0682755,-0.65159065,-0.018245075,-0.343085824,Subject C,Distracted
-0.024863545,0.208706352,-0.173072692,0.042012176,-0.193166991,Subject C,Distracted
-0.025146791,0.185393459,0.25209668,0.087897779,-0.263372617,Subject C,Distracted
-0.025425111,0.104865137,0.396944264,0.100751974,-0.416565498,Subject C,Distracted
-0.025698442,0.109851499,0.469059589,0.103654556,-0.342404852,Subject C,Distracted
-0.02596672,0.180204651,0.669616621,0.116978803,0.060967157,Subject C,Distracted
-0.026229883,0.182962752,0.803068634,0.121987242,0.522559759,Subject C,Distracted
-0.026487871,0.085459034,0.546939232,0.085868762,0.656937617,Subject C,Distracted
-0.026740624,0.021034999,0.03129316,0.016917669,0.365897624,Subject C,Distracted
-0.026988084,0.116677913,-0.15755741,-0.02722661,-0.057890638,Subject C,Distracted
-0.027230194,0.321969529,0.301945452,0.000554006,-0.23261194,Subject C,Distracted
-0.027466901,0.467233066,0.934515164,0.076339644,-0.059066747,Subject C,Distracted
