timestamps,TP9,AF7,AF8,TP10,Subject,Emotion
-0.024933452,-3.298543244,0.086777744,-1.036072921,1.550176871,Subject B,Distracted
-0.024676805,-3.153176567,0.047721592,-0.289107645,1.903296557,Subject B,Distracted
-0.024414843,-3.560604873,0.01497573,-1.227431509,2.132254334,Subject B,Distracted
-0.024147678,-4.082597305,-0.009496922,-2.263105218,2.049181174,Subject B,Distracted
-0.023875428,-4.126650064,-0.024577633,-1.746118717,1.727425567,Subject B,Distracted
-0.023598212,-3.525924885,-0.017989424,-0.189365988,1.402395975,Subject B,Distracted
-0.023316148,-2.551268944,0.035579276,0.336046582,1.292917312,Subject B,Distracted
-0.023029353,-1.582837686,0.138588223,-1.086798068,1.481551471,Subject B,Distracted
-0.022737945,-0.956659966,0.230462487,-2.885258347,1.858175525,Subject B,Distracted
-0.022442043,-0.975123767,0.218083325,-2.847644342,2.129058435,Subject B,Distracted
-0.022141765,-1.73747882,0.072407654,-0.873858059,1.967373076,Subject B,Distracted
-0.021837229,-2.88981704,-0.124783919,0.89451962,1.280260003,Subject B,Distracted
-0.021528555,-3.776558603,-0.257332226,0.725427202,0.34643752,Subject B,Distracted
-0.021215858,-3.99618182,-0.284877457,-0.699360103,-0.379933743,Subject B,Distracted
-0.020899258,-3.720588588,-0.25405278,-1.405829472,-0.640749514,Subject B,Distracted
-0.02057887,-3.392295587,-0.218521646,-0.70977466,-0.549204722,Subject B,Distracted
-0.020254811,-3.218716703,-0.186197929,0.144283008,-0.419401733,Subject B,Distracted
-0.0199272,-3.06729212,-0.146056523,-0.121183763,-0.448969336,Subject B,Distracted
-0.019596151,-2.762275155,-0.109148759,-1.121755971,-0.553382731,Subject B,Distracted
-0.019261784,-2.333822334,-0.099132136,-1.502966735,-0.494230641,Subject B,Distracted
-0.018924216,-1.981672558,-0.117059498,-0.869440397,-0.175184325,Subject B,Distracted
-0.018583563,-1.875216371,-0.137377486,-0.277292694,0.217363583,Subject B,Distracted
-0.018239943,-1.962914388,-0.135430429,-0.7061056,0.417192294,Subject B,Distracted
-0.017893475,-1.934659059,-0.105676855,-1.646069083,0.393501488,Subject B,Distracted
-0.017544276,-1.481248039,-0.05877631,-1.740154199,0.375759002,Subject B,Distracted
-0.017192465,-0.705338748,-0.01624887,-0.669692531,0.555537975,Subject B,Distracted
-0.016838157,-0.155589398,-0.003638666,0.246131337,0.856911099,Subject B,Distracted
-0.016481471,-0.252642585,-0.029511563,-0.325897035,1.055591988,Subject B,Distracted
-0.016122522,-0.738797505,-0.067646179,-1.916016646,1.058271779,Subject B,Distracted
-0.015761427,-0.938718237,-0.075487206,-2.721185148,0.976144636,Subject B,Distracted
-0.015398301,-0.582377631,-0.036957061,-1.924955088,0.931561063,Subject B,Distracted
-0.015033259,-0.096031618,0.02284022,-0.842722833,0.88069738,Subject B,Distracted
-0.014666415,0.063394485,0.068097826,-1.242746545,0.69363515,Subject B,Distracted
-0.014297883,0.124861339,0.085284318,-2.973652519,0.387339759,Subject B,Distracted
-0.013927777,0.771040634,0.08168419,-4.100835514,0.189271204,Subject B,Distracted
-0.013556211,2.248803095,0.064250549,-3.426168478,0.306127796,Subject B,Distracted
-0.013183298,3.988409951,0.031077306,-2.006913861,0.661563428,Subject B,Distracted
-0.012809152,5.202514371,-0.018166229,-1.667467479,0.940482294,Subject B,Distracted
-0.012433885,5.681719058,-0.06960468,-2.595290306,0.911651437,Subject B,Distracted
-0.012057609,5.84173272,-0.097113286,-3.237127557,0.657852664,Subject B,Distracted
-0.011680436,6.100465314,-0.080177426,-2.496952923,0.454356445,Subject B,Distracted
-0.011302475,6.442759068,-0.021496801,-1.234456239,0.45206215,Subject B,Distracted
-0.010923838,6.622339059,0.051842011,-1.142537037,0.540232405,Subject B,Distracted
-0.010544634,6.570987593,0.102247651,-2.537131796,0.53268261,Subject B,Distracted
-0.010164974,6.443554605,0.100876098,-3.920773604,0.419331944,Subject B,Distracted
-0.009784966,6.346539225,0.046970261,-3.850021605,0.360090485,Subject B,Distracted
-0.00940472,6.205297884,-0.024534023,-2.691904673,0.461374443,Subject B,Distracted
-0.009024343,5.94232946,-0.064941871,-2.030441458,0.656125125,Subject B,Distracted
-0.008643943,5.676696216,-0.054341088,-2.547815858,0.811668497,Subject B,Distracted
-0.008263627,5.629781096,-0.021771183,-3.177978273,0.858866846,Subject B,Distracted
-0.007883498,5.818167417,-0.015859294,-2.620882666,0.783609901,Subject B,Distracted
-0.007503661,5.931723986,-0.054881857,-1.176276035,0.58658985,Subject B,Distracted
-0.007124219,5.624936212,-0.110332152,-0.43879742,0.320482908,Subject B,Distracted
-0.006745274,4.937928402,-0.139102325,-1.227529196,0.113719731,Subject B,Distracted
-0.006366925,4.335430796,-0.124742578,-2.47925808,0.087310986,Subject B,Distracted
-0.005989273,4.260694658,-0.084257529,-2.598247034,0.254915188,Subject B,Distracted
-0.005612416,4.684277761,-0.043392293,-1.505652806,0.529824762,Subject B,Distracted
-0.005236452,5.153107289,-0.015943191,-0.672003321,0.806172316,Subject B,Distracted
-0.004861477,5.270492057,-0.003361443,-1.086641206,1.007263754,Subject B,Distracted
-0.004487587,5.056840191,0.000261889,-1.890888901,1.088636571,Subject B,Distracted
-0.004114875,4.811699723,0.007159523,-1.549322483,1.049157597,Subject B,Distracted
-0.003743433,4.694284227,0.027396281,-0.039026273,0.942513115,Subject B,Distracted
-0.003373352,4.550534791,0.052690146,0.916244399,0.843020132,Subject B,Distracted
-0.003004721,4.179317441,0.057563767,0.043460901,0.788152917,Subject B,Distracted
-0.002637627,3.667493486,0.028267221,-1.6656146,0.760893967,Subject B,Distracted
-0.002272156,3.343875753,-0.013046289,-2.044784865,0.713568917,Subject B,Distracted
-0.001908393,3.409072114,-0.025256354,-0.520645133,0.596666341,Subject B,Distracted
-0.001546418,3.717330869,0.00709783,1.050857211,0.395667629,Subject B,Distracted
-0.001186312,3.96149212,0.0535004,0.725790499,0.174519876,Subject B,Distracted
-0.000828153,3.980790672,0.068395553,-0.987809714,0.06019978,Subject B,Distracted
-0.000472014,3.812802462,0.040137465,-1.770039771,0.132823696,Subject B,Distracted
-0.000117967,3.524371101,0.002060377,-0.507883262,0.32081724,Subject B,Distracted
0.000233917,3.138671521,-0.00617199,1.29277848,0.439930249,Subject B,Distracted
0.000583571,2.745927705,0.019653935,1.521084959,0.367848222,Subject B,Distracted
0.000930931,2.549160153,0.050661471,0.164004033,0.18016233,Subject B,Distracted
0.001275934,2.68194111,0.062415174,-0.831244721,0.088423857,Subject B,Distracted
0.001618522,3.008809046,0.059052459,-0.195316973,0.219256417,Subject B,Distracted
0.001958638,3.212522993,0.05983583,1.082707114,0.459762685,Subject B,Distracted
0.002296228,3.118084739,0.072840985,1.20295952,0.555727402,Subject B,Distracted
0.00263124,2.873488761,0.088967256,-0.049465322,0.384731485,Subject B,Distracted
0.002963626,2.757590757,0.095826291,-1.143683877,0.106210018,Subject B,Distracted
0.003293339,2.840337653,0.087830926,-0.92023221,-0.005539715,Subject B,Distracted
0.003620336,2.90884706,0.063872089,-0.004341993,0.122342475,Subject B,Distracted
0.003944577,2.749523111,0.02679372,0.320298917,0.267304233,Subject B,Distracted
0.004266025,2.427651374,-0.00948394,0.026918382,0.166831121,Subject B,Distracted
0.004584647,2.202995353,-0.022781409,0.30342574,-0.1797377,Subject B,Distracted
0.004900413,2.194553339,-0.003104886,1.668045525,-0.529134482,Subject B,Distracted
0.005213297,2.241732619,0.036021676,2.963598689,-0.688177666,Subject B,Distracted
0.005523275,2.136555886,0.075919996,2.72345872,-0.699279083,Subject B,Distracted
0.005830329,1.893876206,0.112828744,1.125049251,-0.719972065,Subject B,Distracted
0.006134443,1.69877801,0.14601997,-0.118043003,-0.820508935,Subject B,Distracted
0.006435604,1.649328752,0.159304304,0.128524861,-0.964432637,Subject B,Distracted
0.006733805,1.689849055,0.142568359,1.047790797,-1.099251235,Subject B,Distracted
0.007029039,1.800104544,0.129977525,1.06630398,-1.154007603,Subject B,Distracted
0.007321305,2.081545695,0.180824882,0.028948017,-1.00326107,Subject B,Distracted
0.007610603,2.54005314,0.301366648,-0.579051107,-0.589657482,Subject B,Distracted
0.007896935,2.894471624,0.40847308,0.312368396,-0.098390684,Subject B,Distracted
0.008180307,2.797939296,0.402638785,1.797761498,0.139824328,Subject B,Distracted
0.008460729,2.267357472,0.274472291,2.086118287,0.001557542,Subject B,Distracted
0.008738211,1.739862312,0.116138718,0.85307431,-0.26219718,Subject B,Distracted
0.009012767,1.636520732,0.027680606,-0.268674499,-0.286178209,Subject B,Distracted
0.009284414,1.970813525,0.033130555,0.215780839,0.048635246,Subject B,Distracted
0.009553168,2.43744445,0.088620234,1.669867466,0.571807407,Subject B,Distracted
0.009819051,2.759777589,0.142649528,2.070127528,1.051493092,Subject B,Distracted
0.010082084,2.845602862,0.170014671,0.60201544,1.363930509,Subject B,Distracted
0.010342291,2.711566383,0.166496943,-1.239437495,1.487372945,Subject B,Distracted
0.0105997,2.43465989,0.14002562,-1.495284594,1.450751603,Subject B,Distracted
0.010854339,2.175680817,0.109719761,-0.14221219,1.31471133,Subject B,Distracted
0.011106238,2.098569662,0.095413111,1.035237554,1.150708278,Subject B,Distracted
0.011355431,2.200753875,0.099491762,0.8052975,1.021571776,Subject B,Distracted
0.011601951,2.300297824,0.106623508,-0.068247745,0.987613222,Subject B,Distracted
0.011845832,2.24569241,0.106639001,-0.05609577,1.085635833,Subject B,Distracted
0.012087109,2.087141639,0.111752694,1.023918327,1.254051605,Subject B,Distracted
0.01232582,1.993712583,0.144485898,1.781663207,1.322627985,Subject B,Distracted
0.012562003,2.049107253,0.20864932,1.095853948,1.163802507,Subject B,Distracted
0.012795695,2.192965155,0.27510732,-0.424211682,0.86006313,Subject B,Distracted
0.013026936,2.335253565,0.299585532,-1.204493041,0.648240826,Subject B,Distracted
0.013255768,2.445432947,0.259852176,-0.653657299,0.668291157,Subject B,Distracted
0.01348223,2.511899837,0.17832881,0.222220427,0.820667129,Subject B,Distracted
0.013706362,2.486283655,0.106138532,0.258129547,0.907168931,Subject B,Distracted
0.013928207,2.331973854,0.084566953,-0.339137849,0.863359092,Subject B,Distracted
0.014147804,2.105775411,0.122289223,-0.378775318,0.795940858,Subject B,Distracted
0.014365193,1.926522035,0.199281864,0.59211604,0.814172928,Subject B,Distracted
0.014580417,1.852821586,0.27779065,1.578320098,0.887500148,Subject B,Distracted
0.014793515,1.847822012,0.314544502,1.40899329,0.888907819,Subject B,Distracted
0.01500453,1.886805799,0.285844029,0.309088709,0.752696336,Subject B,Distracted
0.015213501,2.027366508,0.211655049,-0.343601874,0.563956048,Subject B,Distracted
0.01542047,2.296147584,0.142538979,0.198932326,0.476201422,Subject B,Distracted
0.015625479,2.541660685,0.110880898,1.088095867,0.527492108,Subject B,Distracted
0.015828569,2.517260122,0.101549221,1.040440794,0.554374003,Subject B,Distracted
0.016029784,2.17475149,0.083557471,0.085162751,0.346336022,Subject B,Distracted
0.016229167,1.821298857,0.068273754,-0.465480107,-0.07673335,Subject B,Distracted
0.016426761,1.869696845,0.114207897,0.201966169,-0.398121254,Subject B,Distracted
0.01662261,2.366835673,0.25219857,1.271183635,-0.320943805,Subject B,Distracted
0.01681676,2.832247632,0.412154088,1.352265017,0.042420586,Subject B,Distracted
0.017009254,2.704166941,0.458505102,0.323780849,0.226735102,Subject B,Distracted
0.017200139,1.974892133,0.320613689,-0.494825143,-0.05824235,Subject B,Distracted
0.01738946,1.233585833,0.071632735,-0.073473886,-0.559919541,Subject B,Distracted
0.017577263,0.981328841,-0.143824883,0.990650882,-0.768784953,Subject B,Distracted
0.017763593,1.049638236,-0.249686547,1.299322521,-0.504555409,Subject B,Distracted
0.017948496,0.866923836,-0.288126224,0.527709864,-0.064655609,Subject B,Distracted
0.01813202,0.199415779,-0.344468105,-0.174708715,0.194851963,Subject B,Distracted
0.018314208,-0.592129183,-0.452526076,0.215957887,0.266830255,Subject B,Distracted
0.018495108,-1.018922173,-0.576489855,1.196917992,0.420702494,Subject B,Distracted
0.018674765,-0.981720297,-0.661913198,1.456597299,0.821756575,Subject B,Distracted
0.018853224,-0.762152201,-0.688636778,0.710078908,1.324214638,Subject B,Distracted
0.019030529,-0.657807884,-0.681144385,0.124939548,1.642653041,Subject B,Distracted
0.019206726,-0.756534153,-0.682142094,0.745351086,1.668965799,Subject B,Distracted
0.019381856,-1.00037958,-0.719558207,2.008002501,1.575278057,Subject B,Distracted
0.019555962,-1.30941969,-0.788220635,2.314864356,1.608128214,Subject B,Distracted
0.019729083,-1.596896114,-0.851610436,0.988462235,1.822328879,Subject B,Distracted
0.019901258,-1.771358071,-0.864835756,-0.810030386,2.041008161,Subject B,Distracted
0.020072524,-1.826691333,-0.812023484,-1.370946111,2.044934793,Subject B,Distracted
0.020242917,-1.894512541,-0.728938675,-0.405874467,1.761991234,Subject B,Distracted
0.02041247,-2.104678842,-0.67879775,0.70781854,1.298616048,Subject B,Distracted
0.020581216,-2.382953139,-0.693411386,0.698575289,0.85099861,Subject B,Distracted
0.020749188,-2.483727889,-0.738297511,-0.076819429,0.592327375,Subject B,Distracted
0.020916414,-2.284642012,-0.743018441,-0.299458991,0.584087156,Subject B,Distracted
0.021082923,-1.986139682,-0.668722448,0.416682944,0.749239734,Subject B,Distracted
0.02124874,-1.925113176,-0.54430606,0.9955948,0.939545175,Subject B,Distracted
0.021413891,-2.195744675,-0.436436635,0.439279797,1.049258664,Subject B,Distracted
0.021578395,-2.541401583,-0.387166681,-0.723678957,1.066122395,Subject B,Distracted
0.021742272,-2.663923274,-0.38315522,-1.126818106,1.022240943,Subject B,Distracted
0.021905537,-2.57393572,-0.383415841,-0.465106674,0.928565101,Subject B,Distracted
0.022068207,-2.538784284,-0.36909568,0.051962231,0.783387296,Subject B,Distracted
0.022230293,-2.69444736,-0.358305815,-0.621760025,0.631663357,Subject B,Distracted
0.022391808,-2.846274479,-0.373463587,-1.874680056,0.570758315,Subject B,Distracted
0.022552758,-2.747544332,-0.405068774,-2.237201656,0.660982679,Subject B,Distracted
0.02271315,-2.475135986,-0.417680722,-1.373091336,0.833843304,Subject B,Distracted
0.022872986,-2.353699513,-0.390456358,-0.465584346,0.922139361,Subject B,Distracted
0.023032266,-2.505512841,-0.342052755,-0.474565686,0.808605014,Subject B,Distracted
0.023190987,-2.651793101,-0.31002504,-0.754624816,0.548172138,Subject B,Distracted
0.023349145,-2.456272158,-0.310404204,-0.00386831,0.330141785,Subject B,Distracted
0.023506728,-1.950907292,-0.322911173,1.751242054,0.304521647,Subject B,Distracted
0.023663726,-1.481539905,-0.312526871,2.883405609,0.439858659,Subject B,Distracted
0.023820122,-1.274019461,-0.260975382,2.097141442,0.559805008,Subject B,Distracted
0.023975898,-1.209148227,-0.181476614,0.146548402,0.528831307,Subject B,Distracted
0.024131029,-1.07599362,-0.108678006,-0.910487114,0.395977879,Subject B,Distracted
0.02428549,-0.920653703,-0.070799456,-0.109559282,0.340461338,Subject B,Distracted
0.024439251,-0.989818472,-0.06591177,1.3367732,0.473050337,Subject B,Distracted
0.024592276,-1.332688798,-0.067573531,1.649168453,0.706286555,Subject B,Distracted
0.02474453,-1.622994373,-0.056230135,0.702285949,0.836768159,Subject B,Distracted
0.02489597,-1.498686075,-0.038603196,-0.018937861,0.754847647,Subject B,Distracted
0.025046552,-1.008692397,-0.030478783,0.449400031,0.555107925,Subject B,Distracted
0.025196229,-0.576211043,-0.028859719,1.283457668,0.428512417,Subject B,Distracted
0.025344954,-0.505233559,-0.014714481,1.124329496,0.464316534,Subject B,Distracted
0.025492673,-0.640034441,0.017880175,0.023184999,0.583653605,Subject B,Distracted
0.02563933,-0.58637768,0.048808876,-0.58860479,0.651208793,Subject B,Distracted
0.025784868,-0.216323354,0.052987905,0.204957827,0.605457778,Subject B,Distracted
0.025929228,0.15199028,0.027366922,1.605908581,0.47491308,Subject B,Distracted
0.02607235,0.124464547,-0.005775125,2.122139909,0.322198395,Subject B,Distracted
0.026214166,-0.273706278,-0.016897641,1.423175101,0.213258368,Subject B,Distracted
0.026354603,-0.573295333,0.010124613,0.665836401,0.209463195,Subject B,Distracted
0.02649359,-0.366150811,0.066728262,0.929867851,0.325142607,Subject B,Distracted
0.026631062,0.239435641,0.122456374,1.807541391,0.477308508,Subject B,Distracted
0.02676696,0.755190332,0.143602037,1.999410804,0.528858974,Subject B,Distracted
0.026901205,0.878098921,0.120763487,1.139721719,0.432462736,Subject B,Distracted
0.027033698,0.796585632,0.084334902,0.34983054,0.314276464,Subject B,Distracted
0.02716434,0.87420811,0.084998948,0.659122681,0.353215087,Subject B,Distracted
0.027293081,1.137122967,0.143476728,1.446563629,0.560985431,Subject B,Distracted
0.027419901,1.235540355,0.215360259,1.218459892,0.740033835,Subject B,Distracted
0.02754473,0.91519628,0.220077659,-0.185069028,0.704438639,Subject B,Distracted
0.027667382,0.363653351,0.119769252,-1.060144199,0.49340108,Subject B,Distracted
0.02778766,-0.011834408,-0.034124378,0.046867776,0.288238017,Subject B,Distracted
0.027905561,-0.061172716,-0.146696444,2.294804681,0.141836857,Subject B,Distracted
0.028021291,-0.027110849,-0.17456698,3.358962866,-0.094032533,Subject B,Distracted
0.028134896,-0.227328243,-0.165836924,2.17047286,-0.518115547,Subject B,Distracted
0.028245897,-0.698164435,-0.202499198,0.152164481,-0.94250431,Subject B,Distracted
0.028353601,-1.184478891,-0.313086973,-0.54678108,-1.033855549,Subject B,Distracted
0.028458076,-1.4407042,-0.450162073,0.426139935,-0.721091409,Subject B,Distracted
0.028560496,-1.499665429,-0.547041768,1.412393993,-0.369927295,Subject B,Distracted
0.028661711,-1.631090785,-0.583168178,0.948358081,-0.449060696,Subject B,Distracted
0.028760243,-2.037993333,-0.591273783,-0.452782394,-1.027204595,Subject B,Distracted
0.028852994,-2.603141436,-0.612474562,-1.120707614,-1.681973192,Subject B,Distracted
0.028939573,-2.956766182,-0.656422569,-0.456750181,-1.931688713,Subject B,Distracted
0.029025123,-2.824073986,-0.703980515,0.388086969,-1.700670913,Subject B,Distracted
0.029115124,-2.314654224,-0.737100129,0.21697815,-1.332786823,Subject B,Distracted
0.029205219,-1.849597364,-0.75733335,-0.5156038,-1.203840838,Subject B,Distracted
0.029280839,-1.791272044,-0.776218515,-0.360105695,-1.37574439,Subject B,Distracted
0.029335535,-2.156436248,-0.794766124,1.025251606,-1.608989748,Subject B,Distracted
0.029390982,-2.68332667,-0.799561156,2.218034762,-1.646832515,Subject B,Distracted
0.029487505,-3.109226813,-0.78125058,1.755647436,-1.452196889,Subject B,Distracted
0.029643123,-3.315360449,-0.751032582,-0.004155637,-1.195915957,Subject B,Distracted
0.029824982,-3.261654887,-0.730517762,-1.297523785,-1.066119317,Subject B,Distracted
0.02997312,-2.946383575,-0.726332061,-1.085466265,-1.101903889,Subject B,Distracted
0.030054685,-2.491185508,-0.724601436,-0.159476304,-1.183551368,Subject B,Distracted
0.0300877,-2.132506438,-0.712820075,0.117877281,-1.164130556,Subject B,Distracted
0.030112498,-2.007937018,-0.696018819,-0.325346531,-1.016662621,Subject B,Distracted
0.03015076,-2.011972794,-0.683553892,-0.292412868,-0.863666643,Subject B,Distracted
0.030196052,-1.952423705,-0.668375646,0.862856774,-0.867630476,Subject B,Distracted
0.030233819,-1.780394503,-0.631918841,2.134540462,-1.081557963,Subject B,Distracted
0.030259726,-1.567648341,-0.568770093,2.052909992,-1.37231852,Subject B,Distracted
0.030279275,-1.337751337,-0.496080355,0.648047998,-1.48081166,Subject B,Distracted
0.030297636,-1.071563271,-0.434832071,-0.468862099,-1.223370516,Subject B,Distracted
0.030314451,-0.849384969,-0.388476355,-0.143241761,-0.70562654,Subject B,Distracted
0.030326657,-0.809683206,-0.344898284,0.810334075,-0.300641226,Subject B,Distracted
0.030332812,-0.90781163,-0.294169599,0.694577978,-0.313048848,Subject B,Distracted
0.030333809,-0.856341447,-0.237208658,-0.749406336,-0.648912166,Subject B,Distracted
0.030330864,-0.443126348,-0.179530037,-1.887088082,-0.898759485,Subject B,Distracted
0.03032409,0.135732899,-0.125365022,-1.283714414,-0.778615534,Subject B,Distracted
0.030312842,0.417752875,-0.080677175,0.389974336,-0.423283902,Subject B,Distracted
0.030296689,0.209825475,-0.055749085,1.182694508,-0.208986636,Subject B,Distracted
0.03027573,-0.143470946,-0.056825815,0.356838114,-0.356231863,Subject B,Distracted
0.030250224,-0.191192594,-0.071491502,-0.73161586,-0.769079617,Subject B,Distracted
0.030220222,-0.049374295,-0.066159683,-0.516871623,-1.202471028,Subject B,Distracted
0.030185583,-0.423032714,-0.008915685,0.649148243,-1.472752574,Subject B,Distracted
0.030146181,-1.810437519,0.096847749,0.973051728,-1.499643698,Subject B,Distracted
0.030102001,-3.797011732,0.204841381,-0.32176585,-1.263848818,Subject B,Distracted
0.030053085,-5.332286734,0.261112886,-1.838557645,-0.818566659,Subject B,Distracted
0.029999443,-5.713056096,0.25100541,-1.733423981,-0.310356487,Subject B,Distracted
0.029941038,-5.165990611,0.209754762,-0.083241453,0.090134565,Subject B,Distracted
0.02987783,-4.461179552,0.185626256,1.214086004,0.294984435,Subject B,Distracted
0.029809803,-4.112316391,0.194527975,0.866281968,0.318943418,Subject B,Distracted
0.029736958,-4.039008308,0.214962741,-0.264589235,0.216047286,Subject B,Distracted
0.029659293,-3.892067284,0.2273804,-0.484447596,0.037718008,Subject B,Distracted
0.029576797,-3.535695473,0.245803509,0.409190504,-0.158529882,Subject B,Distracted
