timestamps,TP9,AF7,AF8,TP10,Subject,Emotion
0.013598759,0.015627194,0.099163447,0.008322137,0.383999591,Subject C,Distracted
0.013327246,-0.054830021,-0.648505189,-0.065472164,0.137063863,Subject C,Distracted
0.013053708,-0.026253033,-0.969140438,-0.119217474,-0.254646008,Subject C,Distracted
0.012778165,0.08935118,-0.567274694,-0.125311629,-0.409175795,Subject C,Distracted
0.012500635,0.163734032,-0.239797091,-0.110312289,-0.25023837,Subject C,Distracted
0.012221136,0.127073487,-0.703011504,-0.11046486,-0.029304414,Subject C,Distracted
0.011939682,0.069143225,-1.459024572,-0.118321176,0.017789503,Subject C,Distracted
0.011656289,0.121393345,-1.340821984,-0.097825497,-0.054796273,Subject C,Distracted
0.011370968,0.274392629,-0.086605178,-0.046876716,-0.016941806,Subject C,Distracted
0.011083731,0.374676141,1.168638016,-0.013112111,0.212642377,Subject C,Distracted
0.01079459,0.305337124,1.205010845,-0.03296728,0.453947277,Subject C,Distracted
0.010503555,0.12236176,0.169157857,-0.077082905,0.489888448,Subject C,Distracted
0.010210637,-0.012787202,-0.686813482,-0.081476676,0.326076355,Subject C,Distracted
0.009915846,-0.010246669,-0.600688221,-0.026739201,0.171180851,Subject C,Distracted
0.009619191,0.07454672,-0.158318138,0.037981306,0.190723997,Subject C,Distracted
0.009320684,0.142546978,-0.360642598,0.056143313,0.348697846,Subject C,Distracted
0.009020332,0.184223718,-1.189282626,0.031035586,0.504509646,Subject C,Distracted
0.008718145,0.27169297,-1.583195152,0.015196025,0.59921294,Subject C,Distracted
0.008414132,0.426896503,-0.867789082,0.03749214,0.681355084,Subject C,Distracted
0.008108301,0.549128715,0.246833827,0.061859568,0.776161848,Subject C,Distracted
0.007800662,0.511779011,0.456963746,0.032990342,0.818359759,Subject C,Distracted
0.007491224,0.315543355,-0.516436601,-0.046256315,0.748049405,Subject C,Distracted
0.007179997,0.103982081,-1.549567673,-0.104923635,0.615845613,Subject C,Distracted
0.006866991,0.016014887,-1.468093217,-0.078974694,0.534781688,Subject C,Distracted
0.006552217,0.050130135,-0.419056899,0.015787631,0.540133431,Subject C,Distracted
0.006235687,0.093477196,0.40335508,0.096533746,0.546026551,Subject C,Distracted
0.005917411,0.063508886,0.210068786,0.095319517,0.460004533,Subject C,Distracted
0.005597404,-0.0161686,-0.592380192,0.02060442,0.308977343,Subject C,Distracted
0.005275679,-0.08176162,-1.094357566,-0.060185284,0.207071072,Subject C,Distracted
0.00495225,-0.125658094,-1.007260583,-0.087347218,0.201204286,Subject C,Distracted
0.004627132,-0.184663785,-0.811972549,-0.051129711,0.205092992,Subject C,Distracted
0.004300345,-0.244910625,-0.911452791,0.0213062,0.124135908,Subject C,Distracted
0.003971906,-0.216131811,-1.026312372,0.097988996,0.00851446,Subject C,Distracted
0.003641837,-0.041249545,-0.66398908,0.152879029,0.012239261,Subject C,Distracted
0.00331016,0.184492831,0.008694083,0.164680755,0.179495587,Subject C,Distracted
0.002976901,0.256614992,0.186886714,0.130831143,0.327249705,Subject C,Distracted
0.002642084,0.064081916,-0.532037068,0.083254034,0.217485323,Subject C,Distracted
0.002305736,-0.259704339,-1.463954912,0.068497816,-0.146434758,Subject C,Distracted
0.001967885,-0.440436781,-1.572532695,0.099148354,-0.477295508,Subject C,Distracted
0.001628561,-0.352319362,-0.777360064,0.134425654,-0.518808875,Subject C,Distracted
0.001287795,-0.168411516,-0.088770112,0.121968238,-0.344809275,Subject C,Distracted
0.000945618,-0.159956698,-0.326846039,0.05697462,-0.247522922,Subject C,Distracted
0.000602065,-0.359735896,-1.091306445,-0.009112112,-0.348921112,Subject C,Distracted
0.00025717,-0.513530775,-1.32086702,-0.020539777,-0.449729207,Subject C,Distracted
-8.9e-05,-0.396616528,-0.684891057,0.026136665,-0.317141857,Subject C,Distracted
-0.000436497,-0.089104578,-0.001287097,0.080333601,-0.018168837,Subject C,Distracted
-0.000785191,0.141883125,-0.160258018,0.092616075,0.152324601,Subject C,Distracted
-0.001135072,0.171256949,-0.93922834,0.066255947,0.044948561,Subject C,Distracted
-0.001486097,0.112605384,-1.246997704,0.044908694,-0.170824249,Subject C,Distracted
-0.001838223,0.101908757,-0.540202774,0.051739466,-0.241421419,Subject C,Distracted
-0.002191405,0.117345175,0.392393459,0.059619427,-0.134301036,Subject C,Distracted
-0.002545596,0.070504525,0.367782134,0.032450751,-0.027875903,Subject C,Distracted
-0.002900749,-0.020408331,-0.653481985,-0.019985705,-0.05336603,Subject C,Distracted
-0.003256816,-0.050033436,-1.43228096,-0.050655976,-0.146493157,Subject C,Distracted
-0.003613748,0.011819782,-0.988517494,-0.036941571,-0.163404837,Subject C,Distracted
-0.003971496,0.070662627,0.122475899,-0.012505865,-0.075449247,Subject C,Distracted
-0.004330011,0.039420388,0.484586758,-0.026197703,-0.002820042,Subject C,Distracted
-0.004689244,-0.041564552,-0.361032039,-0.080427391,-0.063430958,Subject C,Distracted
-0.005049143,-0.063465737,-1.28874188,-0.127137304,-0.224991851,Subject C,Distracted
-0.005409657,-0.006190565,-0.974728902,-0.12502652,-0.342378394,Subject C,Distracted
-0.005770731,0.020242767,0.488034597,-0.085511687,-0.338756946,Subject C,Distracted
-0.006132311,-0.081683748,1.785816044,-0.052577095,-0.294480527,Subject C,Distracted
-0.006494338,-0.247185132,2.038479637,-0.045900246,-0.315428587,Subject C,Distracted
-0.006856756,-0.30026782,1.746966652,-0.040207865,-0.362653508,Subject C,Distracted
-0.007219501,-0.167580449,1.93799402,-0.005873679,-0.303508648,Subject C,Distracted
-0.007582514,0.009423221,2.774550199,0.04274186,-0.132508745,Subject C,Distracted
-0.007945728,0.029846078,3.462546809,0.05723497,-0.03412586,Subject C,Distracted
-0.008309081,-0.10868328,3.474085324,0.016385674,-0.1512079,Subject C,Distracted
-0.008672504,-0.170969917,3.358359576,-0.039573505,-0.35026185,Subject C,Distracted
-0.009035932,0.054442347,3.980028046,-0.052669788,-0.329943403,Subject C,Distracted
-0.009399294,0.484407984,5.196479314,-0.018115413,0.015234658,Subject C,Distracted
-0.009762522,0.793998981,5.881188282,0.011655744,0.423429711,Subject C,Distracted
-0.010125542,0.755256981,5.435260292,-0.00080242,0.527092016,Subject C,Distracted
-0.010488284,0.47616277,4.740478638,-0.026589482,0.255066717,Subject C,Distracted
-0.010850673,0.262083909,5.068736872,-0.012747324,-0.101921205,Subject C,Distracted
-0.011212635,0.267388122,6.304364572,0.040694624,-0.229081701,Subject C,Distracted
-0.011574095,0.351117654,6.982906356,0.079941871,-0.109893186,Subject C,Distracted
-0.011934976,0.294576154,6.219500922,0.073970822,0.031294971,Subject C,Distracted
-0.0122952,0.090165415,4.915450851,0.055930334,0.03798271,Subject C,Distracted
-0.01265469,-0.067747753,4.588231154,0.070347599,-0.023613484,Subject C,Distracted
-0.013013365,-0.061718624,5.441468805,0.10672028,-0.01451749,Subject C,Distracted
-0.013371146,-0.016575038,6.247501778,0.115463863,0.068541086,Subject C,Distracted
-0.013727951,-0.127029476,6.049524087,0.077597961,0.102307681,Subject C,Distracted
-0.014083702,-0.380052279,5.311582042,0.027848249,0.020885443,Subject C,Distracted
-0.014438319,-0.548047866,5.095621577,0.006577472,-0.087745609,Subject C,Distracted
-0.014791719,-0.473229439,5.545847989,0.011633962,-0.091445864,Subject C,Distracted
-0.015143818,-0.275485575,5.730973847,0.008942647,0.027981586,Subject C,Distracted
-0.015494532,-0.203879975,4.955508358,-0.018535465,0.168765467,Subject C,Distracted
-0.015843779,-0.317353198,3.735502519,-0.045026322,0.24192897,Subject C,Distracted
-0.016191483,-0.418213965,3.158127769,-0.03154922,0.261625572,Subject C,Distracted
-0.016537564,-0.331070411,3.480951963,0.020698428,0.291440556,Subject C,Distracted
-0.016881932,-0.144389771,3.798461216,0.059843515,0.341431423,Subject C,Distracted
-0.017224493,-0.077614255,3.206554874,0.038461162,0.363393805,Subject C,Distracted
-0.017565168,-0.164585673,1.9555404,-0.028778273,0.341328735,Subject C,Distracted
-0.017903899,-0.210668532,1.107763226,-0.081132457,0.331574652,Subject C,Distracted
-0.018240623,-0.089760468,1.163213676,-0.084148866,0.378365028,Subject C,Distracted
-0.018575229,0.050113056,1.447224854,-0.064264725,0.421721067,Subject C,Distracted
-0.018907572,-0.015438615,1.052798085,-0.063176169,0.347720211,Subject C,Distracted
-0.019237559,-0.25081608,0.102875073,-0.078807975,0.144339754,Subject C,Distracted
-0.019565211,-0.363956172,-0.340877878,-0.073630542,-0.035219713,Subject C,Distracted
-0.019890561,-0.173161509,0.344237648,-0.034419263,-0.016408949,Subject C,Distracted
-0.020213446,0.137454784,1.455378347,0.001975311,0.182132654,Subject C,Distracted
-0.020533495,0.217833907,1.774087146,-0.007710194,0.326878251,Subject C,Distracted
-0.020850496,-0.033533343,1.077795742,-0.058883225,0.21072304,Subject C,Distracted
-0.021164765,-0.358213403,0.393638694,-0.103588576,-0.105229328,Subject C,Distracted
-0.021476829,-0.460998904,0.650255489,-0.104713152,-0.352915678,Subject C,Distracted
-0.02178646,-0.350152509,1.489930933,-0.072438094,-0.360637771,Subject C,Distracted
-0.02209232,-0.273970974,1.779092656,-0.044361783,-0.223296714,Subject C,Distracted
-0.022393399,-0.365883099,1.089272059,-0.039258944,-0.138241554,Subject C,Distracted
-0.022691015,-0.473542395,0.17467464,-0.040046564,-0.145331127,Subject C,Distracted
-0.022988108,-0.382735783,-0.1167742,-0.022816498,-0.121394787,Subject C,Distracted
-0.023284912,-0.125060891,0.027303381,0.006165558,-0.014096853,Subject C,Distracted
-0.023576125,0.042188684,-0.277506049,0.013061021,0.040398606,Subject C,Distracted
-0.023856113,-0.038845091,-1.300203548,-0.022717,-0.092641817,Subject C,Distracted
-0.024129078,-0.219501447,-2.195219266,-0.081166187,-0.313027498,Subject C,Distracted
-0.024409438,-0.229533263,-2.012518279,-0.123825069,-0.36499232,Subject C,Distracted
-0.024703488,-0.02281777,-0.912700327,-0.135514878,-0.153783043,Subject C,Distracted
-0.024989407,0.159276996,-0.017128275,-0.130929428,0.121324203,Subject C,Distracted
-0.025226723,0.096182676,-0.102690555,-0.123350822,0.198477224,Subject C,Distracted
-0.025397269,-0.117437085,-0.785814578,-0.104149688,0.052743975,Subject C,Distracted
-0.025533754,-0.172624515,-1.132303245,-0.060458248,-0.09629231,Subject C,Distracted
-0.025695996,0.067917764,-0.845587526,-0.00349302,-0.048723494,Subject C,Distracted
-0.025916703,0.379427038,-0.568258162,0.031744513,0.15698431,Subject C,Distracted
-0.026177713,0.428799024,-0.977067131,0.01816316,0.292234806,Subject C,Distracted
-0.026438554,0.166336819,-1.824889596,-0.033313756,0.18023687,Subject C,Distracted
-0.026677406,-0.120726994,-2.1757814,-0.079138836,-0.118430632,Subject C,Distracted
-0.026900571,-0.143419586,-1.612843426,-0.082909585,-0.362078539,Subject C,Distracted
-0.027122468,0.080622549,-0.875026656,-0.047948156,-0.368446096,Subject C,Distracted
-0.027347307,0.293209784,-0.988403347,-0.004671834,-0.179054301,Subject C,Distracted
-0.027569459,0.310372863,-1.930264405,0.029894874,0.027147701,Subject C,Distracted
-0.027783632,0.188628635,-2.594191365,0.064574239,0.138194334,Subject C,Distracted
-0.027990067,0.081176061,-2.160157862,0.101749717,0.173781051,Subject C,Distracted
-0.028191716,0.025356866,-1.100205247,0.112235399,0.179918276,Subject C,Distracted
-0.028389908,-0.052500962,-0.544512654,0.064616448,0.153313084,Subject C,Distracted
-0.028583649,-0.168780623,-0.892745935,-0.024344445,0.095640693,Subject C,Distracted
-0.028771617,-0.231371868,-1.451755349,-0.09308585,0.061388838,Subject C,Distracted
-0.028953603,-0.182483024,-1.444506835,-0.100157147,0.077457096,Subject C,Distracted
-0.029130158,-0.100421724,-0.987418423,-0.070357868,0.052977003,Subject C,Distracted
-0.02930162,-0.083763975,-0.796193419,-0.059434493,-0.129961173,Subject C,Distracted
-0.029467803,-0.084678249,-1.107028395,-0.080995129,-0.40997653,Subject C,Distracted
-0.029628366,0.039195086,-1.31755481,-0.091813837,-0.522686134,Subject C,Distracted
-0.029783176,0.297826632,-0.851029815,-0.05605036,-0.276515719,Subject C,Distracted
-0.029932301,0.488726992,-0.044038516,-0.002138374,0.175576567,Subject C,Distracted
-0.030075794,0.410091222,0.226365346,0.00797034,0.444243041,Subject C,Distracted
-0.030213603,0.112699705,-0.275704604,-0.038911367,0.31332759,Subject C,Distracted
-0.030345622,-0.135167392,-0.791259705,-0.082928229,-0.035964743,Subject C,Distracted
-0.030471782,-0.135437591,-0.593723449,-0.062680434,-0.261819002,Subject C,Distracted
-0.030592063,0.046761271,-0.025289984,0.00586774,-0.257839299,Subject C,Distracted
-0.030706454,0.200223936,-0.072820462,0.045381645,-0.221858621,Subject C,Distracted
-0.03081492,0.225425503,-0.969782165,0.010292357,-0.345233999,Subject C,Distracted
-0.030917415,0.215553304,-1.712727205,-0.060459123,-0.542741156,Subject C,Distracted
-0.031013901,0.286635319,-1.252533803,-0.096629739,-0.564038888,Subject C,Distracted
-0.031104352,0.391032693,0.126163908,-0.083481673,-0.329531628,Subject C,Distracted
-0.031188746,0.356809797,1.060154148,-0.068466075,-0.053179034,Subject C,Distracted
-0.031267062,0.11150174,0.72144242,-0.085823658,0.007006663,Subject C,Distracted
-0.031339276,-0.188457334,-0.247145653,-0.109155843,-0.143033645,Subject C,Distracted
-0.031405367,-0.302466763,-0.61888371,-0.097991217,-0.250068375,Subject C,Distracted
-0.031465317,-0.169749289,-0.113528002,-0.067535314,-0.131545237,Subject C,Distracted
-0.031519112,0.021631252,0.349785941,-0.077676321,0.092028153,Subject C,Distracted
-0.031566739,0.042702439,-0.086658367,-0.152969659,0.126271061,Subject C,Distracted
-0.031608188,-0.141092853,-1.091154731,-0.240862134,-0.157350022,Subject C,Distracted
-0.031643448,-0.36711911,-1.550869285,-0.26163714,-0.558945915,Subject C,Distracted
-0.031672513,-0.470809426,-0.963399038,-0.18814049,-0.744790784,Subject C,Distracted
-0.03169538,-0.432334525,-0.050781541,-0.068336183,-0.582040262,Subject C,Distracted
-0.031712046,-0.326769612,0.164896471,0.023568253,-0.25334377,Subject C,Distracted
-0.031722513,-0.183003562,-0.363799084,0.052086214,-0.044504065,Subject C,Distracted
-0.031726784,0.039312965,-0.717590661,0.040153644,-0.058943709,Subject C,Distracted
-0.031724865,0.316015107,-0.262720044,0.030200268,-0.174962497,Subject C,Distracted
-0.031716764,0.473605609,0.52382263,0.033369602,-0.250398902,Subject C,Distracted
-0.031702491,0.33697756,0.723110173,0.026594939,-0.276459084,Subject C,Distracted
-0.031682058,-0.026155755,0.180373612,-0.002671819,-0.289729143,Subject C,Distracted
-0.03165548,-0.299611886,-0.374911241,-0.028955585,-0.225250913,Subject C,Distracted
-0.031622775,-0.231379993,-0.379773614,-0.020548195,0.01465953,Subject C,Distracted
-0.031583961,0.085881227,-0.172011946,0.013959571,0.351192416,Subject C,Distracted
-0.031539063,0.325301143,-0.413387591,0.034735388,0.523601042,Subject C,Distracted
-0.031488104,0.30176104,-1.037820287,0.025638323,0.372250389,Subject C,Distracted
-0.031431114,0.146126296,-1.240906805,0.014563681,0.054651694,Subject C,Distracted
-0.031368123,0.089500221,-0.591768044,0.027719312,-0.118195525,Subject C,Distracted
-0.031299163,0.179180383,0.269387296,0.045799508,-0.036878289,Subject C,Distracted
-0.03122427,0.287025759,0.375610092,0.029095354,0.109647225,Subject C,Distracted
-0.031143483,0.334981612,-0.35228982,-0.022902239,0.107924649,Subject C,Distracted
-0.031056842,0.388491563,-1.059705561,-0.063361038,9.91e-05,Subject C,Distracted
-0.030964389,0.49895807,-1.105614002,-0.055550511,0.007567055,Subject C,Distracted
-0.030866168,0.550764832,-0.825844486,-0.019371491,0.202855036,Subject C,Distracted
-0.030762223,0.370720804,-0.939157948,-0.00523414,0.371610579,Subject C,Distracted
-0.030652603,-0.011701158,-1.496558491,-0.029192269,0.272394748,Subject C,Distracted
-0.030537355,-0.307689075,-1.821820653,-0.05229268,-0.025384502,Subject C,Distracted
-0.03041653,-0.244622568,-1.47072832,-0.030603559,-0.18015069,Subject C,Distracted
-0.030290179,0.119172184,-0.869850178,0.024982035,0.017159506,Subject C,Distracted
-0.030158358,0.417300206,-0.778425102,0.053261183,0.36653023,Subject C,Distracted
-0.030021123,0.341226315,-1.292443208,0.01103669,0.470109037,Subject C,Distracted
-0.029878532,-0.044455201,-1.692630178,-0.073297727,0.189387092,Subject C,Distracted
-0.029730648,-0.388835611,-1.356418676,-0.129248144,-0.202054805,Subject C,Distracted
-0.029577534,-0.438298637,-0.607940236,-0.126919923,-0.34458349,Subject C,Distracted
-0.029419254,-0.268810847,-0.407136467,-0.108862527,-0.188622264,Subject C,Distracted
-0.029255875,-0.118174113,-1.171019019,-0.124576544,0.010245616,Subject C,Distracted
-0.029087466,-0.07341963,-2.154366383,-0.154556329,0.048230532,Subject C,Distracted
-0.028914094,-0.027060572,-2.255357192,-0.135618098,-0.000302697,Subject C,Distracted
-0.028735831,0.079463854,-1.362685936,-0.05974087,0.037736583,Subject C,Distracted
-0.028552747,0.111904693,-0.553837041,-0.004048187,0.139015892,Subject C,Distracted
-0.028364912,-0.067608144,-0.797899246,-0.037301057,0.108366498,Subject C,Distracted
-0.028172398,-0.343689791,-1.753766595,-0.125014715,-0.118977004,Subject C,Distracted
-0.027975275,-0.41872895,-2.205078015,-0.16550859,-0.34677628,Subject C,Distracted
-0.027773616,-0.165787888,-1.574983259,-0.113023173,-0.356817664,Subject C,Distracted
-0.027567495,0.189787498,-0.588637804,-0.029092004,-0.188917769,Subject C,Distracted
-0.027356986,0.316590293,-0.320951964,-0.003115645,-0.086087765,Subject C,Distracted
-0.027142163,0.156498678,-0.933697791,-0.050413003,-0.189595416,Subject C,Distracted
-0.026923102,-0.036008031,-1.654511881,-0.110694601,-0.382122417,Subject C,Distracted
-0.026699881,-0.031835796,-1.852028654,-0.132676229,-0.458872017,Subject C,Distracted
-0.026472577,0.102427554,-1.730736075,-0.129047856,-0.384453493,Subject C,Distracted
-0.026241268,0.139122067,-1.812964159,-0.138841797,-0.305324766,Subject C,Distracted
-0.026006033,0.019718797,-2.037133837,-0.160391438,-0.319895072,Subject C,Distracted
-0.025766952,-0.072443302,-1.79741643,-0.153411717,-0.330720078,Subject C,Distracted
-0.025524103,0.022658062,-0.914165736,-0.108243772,-0.194423432,Subject C,Distracted
-0.025277566,0.216978924,-0.141582183,-0.078635783,0.034243479,Subject C,Distracted
-0.02502742,0.296582234,-0.352841811,-0.118794179,0.132452331,Subject C,Distracted
-0.024773744,0.219301736,-1.373926261,-0.20409876,0.016118331,Subject C,Distracted
-0.024516618,0.18364228,-2.055602398,-0.2485749,-0.095610874,Subject C,Distracted
-0.024256118,0.372940143,-1.629139962,-0.203286229,0.071234628,Subject C,Distracted
-0.023992323,0.706135898,-0.672812021,-0.110032069,0.476611733,Subject C,Distracted
-0.02372531,0.911888247,-0.418156854,-0.047782028,0.76569636,Subject C,Distracted
-0.023455154,0.824568562,-1.215185229,-0.048410718,0.660412546,Subject C,Distracted
-0.023181931,0.540151364,-2.089450566,-0.082912779,0.266986887,Subject C,Distracted
-0.022905716,0.277830195,-1.958567422,-0.115301195,-0.05581454,Subject C,Distracted
-0.022626581,0.151074124,-0.944729978,-0.142318128,-0.077367055,Subject C,Distracted
-0.022344601,0.110751956,-0.12999642,-0.17581492,0.121020955,Subject C,Distracted
-0.022059848,0.076250188,-0.169398826,-0.207274046,0.312290419,Subject C,Distracted
-0.021772395,0.056126763,-0.606487158,-0.208688284,0.387100495,Subject C,Distracted
-0.021482313,0.107153457,-0.671160092,-0.16821725,0.411625466,Subject C,Distracted
-0.021189674,0.204641104,-0.354095068,-0.113760905,0.463168575,Subject C,Distracted
-0.02089455,0.225903374,-0.316639578,-0.092273375,0.49058684,Subject C,Distracted
-0.020597013,0.106911766,-0.8569503,-0.123139332,0.395320665,Subject C,Distracted
-0.020297133,-0.027231865,-1.398063818,-0.174769654,0.220727389,Subject C,Distracted
-0.019994981,0.025366448,-1.220149886,-0.191980613,0.161951238,Subject C,Distracted
-0.019690627,0.284378607,-0.480167407,-0.14793642,0.336992354,Subject C,Distracted
-0.019384136,0.522010479,-0.122369142,-0.066977788,0.60960061,Subject C,Distracted
-0.019075576,0.520655661,-0.687630936,0.003063214,0.718924754,Subject C,Distracted
-0.018765012,0.344047756,-1.535946663,0.035448199,0.570410441,Subject C,Distracted
-0.018452507,0.256816688,-1.571925062,0.039614913,0.329553176,Subject C,Distracted
-0.018138124,0.382457712,-0.608145723,0.040040036,0.217948448,Subject C,Distracted
-0.017821923,0.551368207,0.390504606,0.050377215,0.273918384,Subject C,Distracted
-0.017503962,0.541133596,0.482440887,0.068278984,0.349539902,Subject C,Distracted
-0.017184297,0.37729315,-0.18922658,0.085235152,0.314868555,Subject C,Distracted
-0.016862985,0.285730769,-0.732083873,0.093257982,0.217723691,Subject C,Distracted
-0.01654008,0.375492207,-0.65693904,0.08498178,0.224087519,Subject C,Distracted
-0.016215633,0.496790194,-0.33440295,0.058004767,0.417714766,Subject C,Distracted
-0.015889697,0.459067316,-0.307480982,0.025133476,0.693292373,Subject C,Distracted
-0.015562322,0.292337481,-0.513711936,0.012656718,0.86397553,Subject C,Distracted
-0.015233555,0.194172181,-0.473147537,0.035184061,0.84352767,Subject C,Distracted
-0.014903442,0.254584358,-0.109908002,0.071618773,0.685488038,Subject C,Distracted
-0.01457203,0.346428181,0.020841663,0.080318142,0.473061659,Subject C,Distracted
-0.01423936,0.316881725,-0.491401907,0.046627841,0.243640057,Subject C,Distracted
-0.013905476,0.196782791,-1.192344096,0.004794105,0.031683191,Subject C,Distracted
-0.013570416,0.142337072,-1.215995971,-0.00152454,-0.087784532,Subject C,Distracted
-0.013234221,0.210836553,-0.442210786,0.024664968,-0.056174868,Subject C,Distracted
-0.01289693,0.28877355,0.215996944,0.036624357,0.085811607,Subject C,Distracted
