timestamps,TP9,AF7,AF8,TP10,Subject,Emotion
-0.019257244,0.694301871,0.131765708,0.163635546,0.401592554,Subject A,Distracted
-0.019060087,0.620952753,0.14510867,-0.178326919,0.491475942,Subject A,Distracted
-0.018859276,0.399725513,0.162232003,-0.556661445,0.549095907,Subject A,Distracted
-0.018654879,0.493919597,0.175286217,-0.208309744,0.650257155,Subject A,Distracted
-0.018446963,0.886806119,0.183865323,0.670808296,0.760726885,Subject A,Distracted
-0.018235598,1.115350857,0.201478265,1.111769813,0.770025832,Subject A,Distracted
-0.018020853,0.911847974,0.237333399,0.592006769,0.646831978,Subject A,Distracted
-0.0178028,0.573932259,0.279476956,-0.294823853,0.495192505,Subject A,Distracted
-0.017581511,0.570500579,0.303044762,-0.584078625,0.436935209,Subject A,Distracted
-0.01735706,0.90998573,0.291151012,-0.134575349,0.475521539,Subject A,Distracted
-0.017129524,1.107207419,0.247334694,0.262481026,0.504285231,Subject A,Distracted
-0.016898981,0.804665671,0.194555204,-0.032047663,0.432208626,Subject A,Distracted
-0.016665509,0.252134851,0.160836839,-0.668477511,0.272833808,Subject A,Distracted
-0.016429189,0.018069488,0.156699954,-0.800890034,0.110390603,Subject A,Distracted
-0.016190102,0.284065078,0.166448433,-0.224232142,0.004767828,Subject A,Distracted
-0.015948333,0.616484992,0.16957229,0.355297356,-0.051583948,Subject A,Distracted
-0.015703964,0.513684459,0.169415139,0.253569681,-0.089907688,Subject A,Distracted
-0.015457078,0.037193779,0.189689762,-0.301173941,-0.102499464,Subject A,Distracted
-0.015207761,-0.273766098,0.239917479,-0.484790219,-0.044869524,Subject A,Distracted
-0.014956096,-0.079960684,0.295231788,0.025701019,0.094713835,Subject A,Distracted
-0.014702165,0.362746759,0.318986503,0.607794508,0.242176874,Subject A,Distracted
-0.014446053,0.565288627,0.30059009,0.484407197,0.281695038,Subject A,Distracted
-0.014187843,0.410310336,0.263517254,-0.267395186,0.17532716,Subject A,Distracted
-0.013927619,0.220082439,0.238880079,-0.800285958,0.029704855,Subject A,Distracted
-0.013665465,0.261814835,0.238622522,-0.570688437,0.006462973,Subject A,Distracted
-0.013401465,0.394767524,0.253922803,-0.002861357,0.150208722,Subject A,Distracted
-0.013135704,0.320860975,0.272029051,0.12193409,0.333960826,Subject A,Distracted
-0.012868265,0.061743358,0.290219316,-0.268560816,0.398455625,Subject A,Distracted
-0.012599234,-0.013213562,0.314863475,-0.448707778,0.322355452,Subject A,Distracted
-0.012328693,0.330395341,0.348693001,0.075302552,0.22573178,Subject A,Distracted
-0.012056726,0.832266065,0.379164855,0.798480069,0.219661411,Subject A,Distracted
-0.011783417,1.001297254,0.382223256,0.810823464,0.285393019,Subject A,Distracted
-0.011508848,0.704836115,0.343700602,0.034678505,0.305742965,Subject A,Distracted
-0.011233102,0.338349023,0.278561282,-0.573907382,0.194579383,Subject A,Distracted
-0.010956263,0.339301385,0.221962089,-0.232016206,-0.016664718,Subject A,Distracted
-0.010678413,0.653154724,0.195212697,0.621289783,-0.213659357,Subject A,Distracted
-0.010399633,0.832552102,0.184802743,0.881400213,-0.305833886,Subject A,Distracted
-0.010120005,0.627288562,0.16245731,0.236389569,-0.290448479,Subject A,Distracted
-0.00983961,0.286123922,0.123221701,-0.430121036,-0.223267718,Subject A,Distracted
-0.00955853,0.19219268,0.09328473,-0.222764294,-0.158799738,Subject A,Distracted
-0.009276845,0.344172544,0.097780243,0.603121048,-0.133245077,Subject A,Distracted
-0.008994636,0.3793323,0.131759435,1.019481313,-0.169410592,Subject A,Distracted
-0.008711981,0.089004573,0.171857048,0.572123208,-0.252450332,Subject A,Distracted
-0.008428962,-0.278928729,0.209356522,-0.078091238,-0.308634735,Subject A,Distracted
-0.008145658,-0.334878585,0.257336386,-0.049371571,-0.255238229,Subject A,Distracted
-0.007862147,-0.050571142,0.322884554,0.628892227,-0.091240849,Subject A,Distracted
-0.007578506,0.224704881,0.384369364,1.069528006,0.084297376,Subject A,Distracted
-0.007294812,0.245114698,0.407595534,0.673118107,0.163144004,Subject A,Distracted
-0.007011142,0.181054991,0.383531748,-0.094048559,0.126277953,Subject A,Distracted
-0.006727573,0.333018487,0.340581263,-0.292851724,0.040217513,Subject A,Distracted
-0.006444182,0.653124094,0.314710881,0.283265264,-0.026534864,Subject A,Distracted
-0.006161045,0.767831473,0.313583364,0.869813846,-0.056469317,Subject A,Distracted
-0.00587824,0.507265191,0.317017607,0.767026196,-0.05969184,Subject A,Distracted
-0.005595845,0.210926718,0.307418356,0.252094257,-0.036792896,Subject A,Distracted
-0.005313939,0.333676733,0.28758179,0.153413824,0.010079377,Subject A,Distracted
-0.0050326,0.823167187,0.266851983,0.686177731,0.044881994,Subject A,Distracted
-0.00475191,1.105342739,0.241303843,1.127228918,0.009538872,Subject A,Distracted
-0.004471948,0.760341273,0.197356737,0.769628195,-0.116674974,Subject A,Distracted
-0.004192799,0.059063508,0.133040684,-0.10953277,-0.279205695,Subject A,Distracted
-0.003914546,-0.329544804,0.068186558,-0.556738597,-0.384818453,Subject A,Distracted
-0.003637273,-0.114198217,0.029702648,-0.13463814,-0.378852462,Subject A,Distracted
-0.003361066,0.310710233,0.027362736,0.551860629,-0.280651541,Subject A,Distracted
-0.00308601,0.383666317,0.045450164,0.664889327,-0.146243705,Subject A,Distracted
-0.002812194,0.05877141,0.058652641,0.201764773,-0.010817705,Subject A,Distracted
-0.002539703,-0.184936393,0.055406487,-0.070165129,0.12160909,Subject A,Distracted
-0.002268626,0.009347373,0.044025896,0.297411439,0.231350883,Subject A,Distracted
-0.001999047,0.399262009,0.036939787,0.783100562,0.237101587,Subject A,Distracted
-0.001731052,0.444967894,0.035651601,0.586268845,0.036460495,Subject A,Distracted
-0.001464727,0.026497495,0.038030674,-0.22477432,-0.349646374,Subject A,Distracted
-0.001200156,-0.328487747,0.055912866,-0.681289377,-0.673180506,Subject A,Distracted
-0.000937423,-0.046522929,0.108720021,-0.156654127,-0.603469664,Subject A,Distracted
-0.00067661,0.746231737,0.188153685,0.724755276,-0.083796851,Subject A,Distracted
-0.000417797,1.263457169,0.23997984,0.818211661,0.486439435,Subject A,Distracted
-0.000161068,0.907556491,0.203661632,-0.024140544,0.562452487,Subject A,Distracted
9.35e-05,-0.05373746,0.076722019,-0.674281043,0.004914051,Subject A,Distracted
0.000345819,-0.800476545,-0.074936575,-0.163075729,-0.76006416,Subject A,Distracted
0.000595819,-0.879564296,-0.179678518,1.011530339,-1.188302148,Subject A,Distracted
0.000843418,-0.613690924,-0.221400721,1.461249621,-1.147102936,Subject A,Distracted
0.001088539,-0.570903,-0.229838308,0.660955049,-0.925544783,Subject A,Distracted
0.001331105,-0.850140917,-0.226674153,-0.394113561,-0.809105623,Subject A,Distracted
0.001571041,-1.068217003,-0.203591803,-0.465539605,-0.797430815,Subject A,Distracted
0.001808275,-0.940171594,-0.149999052,0.392376702,-0.739301346,Subject A,Distracted
0.002042734,-0.626196607,-0.080113302,0.993295827,-0.588372388,Subject A,Distracted
0.002274349,-0.447843224,-0.023830176,0.579304527,-0.428536483,Subject A,Distracted
0.002503051,-0.442974833,-0.001031171,-0.282349492,-0.317165881,Subject A,Distracted
0.002728774,-0.373141936,-0.011140447,-0.543083815,-0.213565941,Subject A,Distracted
0.002951454,-0.124538941,-0.039962248,-0.023562157,-0.067732806,Subject A,Distracted
0.003171029,0.09578982,-0.068529521,0.502423633,0.091778414,Subject A,Distracted
0.003387439,0.061180015,-0.079041734,0.452542,0.192153833,Subject A,Distracted
0.003600625,-0.103938384,-0.06245275,0.176772133,0.20560006,Subject A,Distracted
0.003810534,-0.041576967,-0.025074854,0.355186882,0.171189276,Subject A,Distracted
0.004017114,0.349714293,0.015247649,0.964100852,0.139192538,Subject A,Distracted
0.004220315,0.721365554,0.042760098,1.231828568,0.123295984,Subject A,Distracted
0.004420091,0.681004227,0.053425638,0.649883478,0.113039858,Subject A,Distracted
0.004616396,0.286474447,0.052624106,-0.284247245,0.1138757,Subject A,Distracted
0.00480919,-0.025872376,0.048397611,-0.598445279,0.157868409,Subject A,Distracted
0.004998431,0.013946634,0.047238702,-0.030283476,0.269318102,Subject A,Distracted
0.005184082,0.210205432,0.049068715,0.639135866,0.419056382,Subject A,Distracted
0.005366106,0.226091002,0.042615945,0.555117281,0.522398858,Subject A,Distracted
0.005544468,0.069483106,0.013212763,-0.16044566,0.505672233,Subject A,Distracted
0.005719136,0.068663533,-0.036382353,-0.608569192,0.388316194,Subject A,Distracted
0.005890081,0.373651211,-0.075230304,-0.272962661,0.283760397,Subject A,Distracted
0.006057276,0.689516054,-0.064246865,0.369346749,0.296057612,Subject A,Distracted
0.006220697,0.648652989,0.005012623,0.535133393,0.415232957,Subject A,Distracted
0.006380323,0.332906758,0.090630576,0.158819158,0.528826528,Subject A,Distracted
0.006536133,0.203532261,0.125925664,-0.109131699,0.536915864,Subject A,Distracted
0.006688114,0.485763256,0.075007079,0.124769259,0.442712212,Subject A,Distracted
0.006836249,0.825479043,-0.031718587,0.428514417,0.329953887,Subject A,Distracted
0.006980527,0.710531477,-0.12184494,0.181934508,0.269500289,Subject A,Distracted
0.007120939,0.13763538,-0.148301637,-0.479460285,0.258632872,Subject A,Distracted
0.007257476,-0.343211704,-0.13166596,-0.769041222,0.239526123,Subject A,Distracted
0.007390132,-0.285213404,-0.128367871,-0.294912713,0.160689356,Subject A,Distracted
0.007518902,0.125464269,-0.160757122,0.386170098,0.023466237,Subject A,Distracted
0.007643781,0.336054733,-0.195493374,0.46938954,-0.11285493,Subject A,Distracted
0.007764767,0.132438589,-0.194040357,-0.070214081,-0.163654548,Subject A,Distracted
0.007881861,-0.133975151,-0.16133831,-0.455131262,-0.077923076,Subject A,Distracted
0.007995066,-0.070438149,-0.128944823,-0.109415816,0.102657423,Subject A,Distracted
0.008104387,0.202597423,-0.109397183,0.572088654,0.242953192,Subject A,Distracted
0.008209831,0.206840696,-0.091105937,0.668176741,0.212964131,Subject A,Distracted
0.008311407,-0.247181483,-0.068072243,-0.113315952,0.016651025,Subject A,Distracted
0.008409127,-0.780614994,-0.048932811,-1.001856324,-0.196752451,Subject A,Distracted
0.008503005,-0.892071252,-0.036140391,-1.059458456,-0.277224022,Subject A,Distracted
0.008593056,-0.552601195,-0.017216549,-0.325457347,-0.217662382,Subject A,Distracted
0.0086793,-0.216474542,0.01354155,0.251474962,-0.136538195,Subject A,Distracted
0.008761756,-0.273891013,0.035407835,0.015840887,-0.144672425,Subject A,Distracted
0.008840447,-0.642104957,0.017553415,-0.608703114,-0.260783125,Subject A,Distracted
0.008915399,-0.963094283,-0.04234428,-0.734876194,-0.432585571,Subject A,Distracted
0.008986637,-1.095425476,-0.105773894,-0.185822024,-0.592793058,Subject A,Distracted
0.009054187,-1.246333893,-0.130205602,0.291861875,-0.699294358,Subject A,Distracted
0.009118081,-1.591810041,-0.115136094,0.009028623,-0.75948157,Subject A,Distracted
0.009178351,-1.922355853,-0.09756491,-0.783618562,-0.814546978,Subject A,Distracted
0.009235029,-1.835140336,-0.098643357,-1.225387625,-0.870547043,Subject A,Distracted
0.009288151,-1.271287428,-0.093360539,-0.915462041,-0.86039037,Subject A,Distracted
0.009337753,-0.696998744,-0.050747569,-0.339074683,-0.724981115,Subject A,Distracted
0.009383871,-0.630890813,0.007398747,-0.164174848,-0.532339236,Subject A,Distracted
0.009426545,-1.058053711,0.016905826,-0.391359253,-0.456236571,Subject A,Distracted
0.009465818,-1.464842211,-0.052552269,-0.469545506,-0.604641535,Subject A,Distracted
0.009501734,-1.469427932,-0.153239075,-0.165198792,-0.901670189,Subject A,Distracted
0.009534333,-1.257774028,-0.206495021,0.048916563,-1.170056565,Subject A,Distracted
0.009563656,-1.285803546,-0.183898988,-0.330912818,-1.315654186,Subject A,Distracted
0.009589744,-1.671398751,-0.13070048,-1.020706846,-1.411063653,Subject A,Distracted
0.009612651,-2.088171755,-0.117517957,-1.205835909,-1.607588407,Subject A,Distracted
0.009632439,-2.267996783,-0.178906846,-0.637298653,-1.982397596,Subject A,Distracted
0.009649153,-2.393177852,-0.290134194,-0.06110819,-2.475887988,Subject A,Distracted
0.009662819,-2.832593966,-0.389414092,-0.278435614,-2.972404558,Subject A,Distracted
0.009673467,-3.592038891,-0.425145703,-1.04318508,-3.424788185,Subject A,Distracted
0.009681177,-4.24909547,-0.395708843,-1.332173634,-3.882055847,Subject A,Distracted
0.009686064,-4.484573063,-0.351019694,-0.687691676,-4.407976955,Subject A,Distracted
0.009688191,-4.504533518,-0.353879077,0.159285311,-5.005138759,Subject A,Distracted
0.009687509,-4.780741593,-0.434915553,0.231088949,-5.611051967,Subject A,Distracted
0.009683958,-5.438301994,-0.574293922,-0.431922092,-6.120627737,Subject A,Distracted
0.009677674,-6.082293883,-0.711594206,-0.838080167,-6.414152815,Subject A,Distracted
0.009669,-6.289350509,-0.772048628,-0.350861635,-6.442567699,Subject A,Distracted
0.009658124,-6.144485057,-0.708558834,0.448545835,-6.329072271,Subject A,Distracted
0.009644703,-6.141569558,-0.545684849,0.471144222,-6.318396832,Subject A,Distracted
0.009628185,-6.559043032,-0.377164237,-0.458135535,-6.549744248,Subject A,Distracted
0.009608774,-7.097192293,-0.291825312,-1.282788637,-6.913186274,Subject A,Distracted
0.009587781,-7.258592849,-0.29286087,-0.977127591,-7.202401447,Subject A,Distracted
0.009566193,-7.001742717,-0.307035099,0.171759719,-7.382883881,Subject A,Distracted
0.009542664,-6.813333278,-0.278601315,0.912404369,-7.613486823,Subject A,Distracted
0.009514233,-7.085338437,-0.231825838,0.567522921,-7.986776797,Subject A,Distracted
0.00948064,-7.612091535,-0.226044253,-0.222817335,-8.345022818,Subject A,Distracted
0.009447158,-7.874483602,-0.269629642,-0.443799445,-8.432513351,Subject A,Distracted
0.009419397,-7.715162762,-0.308026285,0.011157595,-8.1948628,Subject A,Distracted
0.009393129,-7.483668634,-0.295213462,0.38569505,-7.845659509,Subject A,Distracted
0.009353912,-7.48223234,-0.250512642,0.195029208,-7.623152815,Subject A,Distracted
0.009295422,-7.514753335,-0.231482712,-0.185245933,-7.534880585,Subject A,Distracted
0.009239454,-7.170618343,-0.263397004,-0.178415013,-7.37716958,Subject A,Distracted
0.009226455,-6.432799095,-0.312984721,0.143877627,-6.982357376,Subject A,Distracted
0.009274563,-5.755629923,-0.333991583,0.223335606,-6.403333928,Subject A,Distracted
0.009351042,-5.49167915,-0.324835334,-0.108941433,-5.838327978,Subject A,Distracted
0.009396049,-5.430752625,-0.325284302,-0.32610317,-5.397451828,Subject A,Distracted
0.009376847,-5.075470542,-0.356880568,0.063551163,-4.992740812,Subject A,Distracted
0.009311572,-4.3113164,-0.387704688,0.740323275,-4.485503273,Subject A,Distracted
0.009240669,-3.591904915,-0.37296237,0.87911833,-3.89482102,Subject A,Distracted
0.009185929,-3.368892935,-0.318981958,0.240096537,-3.37815871,Subject A,Distracted
0.009141025,-3.488587333,-0.281337125,-0.403512115,-3.003268099,Subject A,Distracted
0.009091509,-3.347967759,-0.294851438,-0.190929219,-2.631604997,Subject A,Distracted
0.009033145,-2.62340897,-0.325985733,0.679437893,-2.085227518,Subject A,Distracted
0.008971533,-1.636708774,-0.308936279,1.137545329,-1.376359846,Subject A,Distracted
0.00891194,-0.90737713,-0.219037102,0.601467096,-0.702027206,Subject A,Distracted
0.008854099,-0.510527623,-0.095795917,-0.25686671,-0.225788655,Subject A,Distracted
0.008795038,-0.079671251,0.003021992,-0.357383225,0.080494953,Subject A,Distracted
0.008733403,0.605023797,0.054967768,0.438013447,0.37300987,Subject A,Distracted
0.008670173,1.275101095,0.077447214,1.201094052,0.754007359,Subject A,Distracted
0.008606651,1.535750063,0.093119345,1.124080898,1.178662736,Subject A,Distracted
0.008543032,1.422587611,0.105067455,0.467871602,1.535580743,Subject A,Distracted
0.008478756,1.392082802,0.105035927,0.149911673,1.791352144,Subject A,Distracted
0.008413474,1.750590454,0.094865738,0.582899768,2.028152544,Subject A,Distracted
0.008347367,2.278776339,0.092866888,1.204526264,2.344359399,Subject A,Distracted
0.008280772,2.554660125,0.118915457,1.213977981,2.755489634,Subject A,Distracted
0.008213823,2.551477304,0.174075617,0.573524725,3.208423116,Subject A,Distracted
0.008146455,2.70490056,0.23646286,0.048456692,3.655517993,Subject A,Distracted
0.008078618,3.32857068,0.280280758,0.251904162,4.069729348,Subject A,Distracted
0.008010376,4.135268607,0.299367505,0.896924889,4.396553044,Subject A,Distracted
0.007941843,4.52782727,0.308539486,1.200733167,4.550677828,Subject A,Distracted
0.007873102,4.327535272,0.319716907,0.915798045,4.503076455,Subject A,Distracted
0.007804185,4.00177234,0.320914035,0.637030018,4.352107323,Subject A,Distracted
0.007735121,4.080386067,0.286422821,0.958076872,4.257679496,Subject A,Distracted
0.007665961,4.507095571,0.209418952,1.583099099,4.287832624,Subject A,Distracted
0.007596771,4.74592835,0.117122791,1.628513583,4.359041131,Subject A,Distracted
0.007527611,4.470963882,0.047920172,0.800618405,4.348564896,Subject A,Distracted
0.007458529,3.941967074,0.01704158,-0.10031093,4.237742969,Subject A,Distracted
0.00738957,3.622854789,0.009512318,-0.092307598,4.105591888,Subject A,Distracted
0.007320783,3.585521987,0.003648882,0.788950972,3.998583973,Subject A,Distracted
0.007252222,3.48360603,-0.005386355,1.550204615,3.872245344,Subject A,Distracted
0.00718394,3.103041008,-0.006493464,1.464638835,3.686086438,Subject A,Distracted
0.00711599,2.724271573,0.008851485,0.870685406,3.499280864,Subject A,Distracted
0.007048423,2.780638904,0.034739127,0.591416916,3.412433562,Subject A,Distracted
0.00698129,3.254293566,0.057299324,0.853017515,3.434944039,Subject A,Distracted
0.006914646,3.636961767,0.070288639,1.136137328,3.472913778,Subject A,Distracted
0.006848547,3.545973741,0.084183734,1.034540249,3.460508853,Subject A,Distracted
0.006783047,3.193931055,0.118383034,0.851075516,3.453235621,Subject A,Distracted
0.006718202,3.081774734,0.178519672,1.105942997,3.549546316,Subject A,Distracted
0.006654068,3.318414789,0.241026014,1.674662811,3.73902282,Subject A,Distracted
0.006590704,3.478868644,0.270080678,1.816033462,3.884878723,Subject A,Distracted
0.006528166,3.194843032,0.255445665,1.160074485,3.881536819,Subject A,Distracted
0.006466514,2.6835018,0.225203157,0.355249167,3.787669783,Subject A,Distracted
0.006405808,2.498541484,0.213761226,0.395337206,3.748502546,Subject A,Distracted
0.006346105,2.827775951,0.224532203,1.371193058,3.795771435,Subject A,Distracted
0.006287467,3.260132573,0.234412053,2.261713728,3.788984369,Subject A,Distracted
0.006229951,3.315625553,0.230786849,2.116647552,3.591080484,Subject A,Distracted
0.006173617,3.035484344,0.228008042,1.180094739,3.266816837,Subject A,Distracted
0.006118523,2.872984466,0.239096822,0.556441707,3.04655238,Subject A,Distracted
0.006064726,3.049688979,0.244036613,0.862198544,3.080842983,Subject A,Distracted
0.006012282,3.233945866,0.207198975,1.537739043,3.275386847,Subject A,Distracted
0.005961247,2.975396692,0.128895584,1.611749292,3.403354879,Subject A,Distracted
0.005911677,2.336847531,0.061243698,0.919317451,3.350892428,Subject A,Distracted
0.005863624,1.879296984,0.059213835,0.272496778,3.197931835,Subject A,Distracted
0.005817143,1.974413244,0.121060798,0.409615455,3.065471547,Subject A,Distracted
0.005772282,2.316497067,0.187281553,1.069472285,2.958879248,Subject A,Distracted
0.005729092,2.295027379,0.199810611,1.374479732,2.808546526,Subject A,Distracted
0.00568762,1.780364187,0.157294416,1.011578643,2.614821868,Subject A,Distracted
0.005647908,1.301965949,0.108320586,0.624754354,2.465950688,Subject A,Distracted
0.005609998,1.365517176,0.09394166,0.871890654,2.402667482,Subject A,Distracted
0.005573929,1.792217283,0.107838088,1.443950203,2.338977826,Subject A,Distracted
0.00553974,1.947847512,0.117507735,1.44718296,2.165693437,Subject A,Distracted
0.005507467,1.558205952,0.11128943,0.665195067,1.894897082,Subject A,Distracted
0.005477146,1.043620765,0.107411155,-0.05660341,1.651152926,Subject A,Distracted
0.005448808,0.95753087,0.119224644,0.118758249,1.53480997,Subject A,Distracted
0.005422487,1.286918639,0.130972639,0.93656719,1.5377519,Subject A,Distracted
0.005398211,1.515353842,0.118429452,1.415706555,1.588737357,Subject A,Distracted
0.005376008,1.321123355,0.082970662,1.132507127,1.633823818,Subject A,Distracted
0.005355906,0.968349719,0.051152812,0.681759087,1.651040453,Subject A,Distracted
0.005337928,0.897093443,0.042914568,0.76326973,1.618527565,Subject A,Distracted
0.005322098,1.097365011,0.051702641,1.210391502,1.512260139,Subject A,Distracted
0.005308436,1.122232181,0.056342619,1.278916179,1.345616605,Subject A,Distracted
0.005296964,0.715609738,0.042400433,0.749643213,1.191070742,Subject A,Distracted
0.005287699,0.19589443,0.010089328,0.304909549,1.141489792,Subject A,Distracted
0.005280657,0.069221272,-0.028062174,0.639532386,1.240114587,Subject A,Distracted
0.005275852,0.387642857,-0.05086347,1.480193483,1.440554763,Subject A,Distracted
0.005273297,0.708899692,-0.038285732,1.849977251,1.625390384,Subject A,Distracted
0.005273006,0.703546766,0.010725987,1.295366625,1.670710891,Subject A,Distracted
0.005274988,0.592490265,0.070946484,0.487877257,1.52795601,Subject A,Distracted
0.005279255,0.832344487,0.109728857,0.384525608,1.272537674,Subject A,Distracted
0.005285816,1.463797505,0.114060036,1.026601451,1.054558991,Subject A,Distracted
