timestamps,TP9,AF7,AF8,TP10,Subject,Emotion
0.003459074,0.533493148,-0.065274171,3.975730899,0.673844601,Subject B,Distracted
0.003433183,0.109809632,-0.065249559,0.875288763,0.577837312,Subject B,Distracted
0.003410733,-0.044636249,-0.065361279,-0.164957622,0.595874641,Subject B,Distracted
0.003391724,0.168755905,-0.052480516,2.305373418,0.77279276,Subject B,Distracted
0.003376157,0.336783409,-0.016876781,5.301612648,0.955196798,Subject B,Distracted
0.003364027,0.121748714,0.025072205,5.234918366,0.973266881,Subject B,Distracted
0.003355329,-0.289274545,0.042852833,2.540081712,0.833391752,Subject B,Distracted
0.003350057,-0.424694146,0.027407184,1.016997371,0.684410987,Subject B,Distracted
0.003348202,-0.12078284,0.002456744,2.809927494,0.624437583,Subject B,Distracted
0.003349753,0.289505684,-0.007660915,5.636639515,0.613435994,Subject B,Distracted
0.003354694,0.409608992,-0.011566906,5.815719393,0.589530981,Subject B,Distracted
0.00336301,0.268000615,-0.03825686,3.04557217,0.597892992,Subject B,Distracted
0.003374682,0.24048178,-0.09424239,0.714481044,0.730390653,Subject B,Distracted
0.003389689,0.512493172,-0.147388154,1.432086382,0.951143667,Subject B,Distracted
0.003408007,0.790657628,-0.157062839,3.687249351,1.063559443,Subject B,Distracted
0.00342961,0.674534476,-0.114175944,4.007698353,0.902327676,Subject B,Distracted
0.00345447,0.229958929,-0.050628994,1.724566857,0.528765268,Subject B,Distracted
0.003482559,-0.021823198,-0.012221951,-0.041223614,0.182143804,Subject B,Distracted
0.003513845,0.242130646,-0.017517043,1.45088482,0.038632693,Subject B,Distracted
0.003548293,0.687271687,-0.036855745,4.793130592,0.060257289,Subject B,Distracted
0.00358587,0.714307554,-0.017564806,6.145573302,0.08783422,Subject B,Distracted
0.003626536,0.239652609,0.05872052,4.170007744,0.034653647,Subject B,Distracted
0.003670254,-0.165983463,0.145493675,1.605850401,-0.051408005,Subject B,Distracted
0.003716982,0.013057988,0.171592633,1.469555648,-0.094267739,Subject B,Distracted
0.003766678,0.601368085,0.116973458,3.084810132,-0.091350509,Subject B,Distracted
0.003819296,0.981252219,0.037869083,3.283215481,-0.073552704,Subject B,Distracted
0.003874792,0.856812223,0.007644727,1.038965247,-0.008013841,Subject B,Distracted
0.00393312,0.529501414,0.039316102,-0.876227941,0.176299253,Subject B,Distracted
0.003994233,0.400756025,0.07787485,0.416493155,0.444506313,Subject B,Distracted
0.004058082,0.446127507,0.066453899,3.80532097,0.609801134,Subject B,Distracted
0.004124615,0.359365522,0.006519464,5.307062767,0.509733018,Subject B,Distracted
0.004193781,0.086003413,-0.050806505,3.111959544,0.219460688,Subject B,Distracted
0.004265527,-0.056914043,-0.06061276,-0.044414085,0.01711321,Subject B,Distracted
0.004339796,0.150257081,-0.022784171,-0.371938989,0.09866495,Subject B,Distracted
0.004416533,0.458084378,0.025410152,2.122935506,0.360721596,Subject B,Distracted
0.004495679,0.437998175,0.042022408,3.769833584,0.512319113,Subject B,Distracted
0.004577172,0.069771907,0.010132389,2.177830634,0.393265876,Subject B,Distracted
0.004660954,-0.180380093,-0.049568249,-0.556033041,0.133296849,Subject B,Distracted
0.004746961,0.063957157,-0.091962136,-0.679136691,-0.017579711,Subject B,Distracted
0.00483513,0.593795202,-0.083828966,2.08006941,0.031725744,Subject B,Distracted
0.004925394,0.851314426,-0.035114793,3.99271277,0.147457088,Subject B,Distracted
0.005017688,0.608197564,0.008283773,2.257743905,0.157014199,Subject B,Distracted
0.005111943,0.230876694,0.00834266,-1.143375365,0.036596772,Subject B,Distracted
0.00520809,0.214532071,-0.027305,-1.882484717,-0.099175433,Subject B,Distracted
0.005306061,0.589128423,-0.054892135,1.100964737,-0.141909938,Subject B,Distracted
0.005405783,0.928960827,-0.04361736,4.16484479,-0.085411726,Subject B,Distracted
0.005507185,0.910579718,-0.009217521,3.590540991,-0.001190574,Subject B,Distracted
0.005610197,0.687364575,0.007877493,0.255183908,0.041903865,Subject B,Distracted
0.005714748,0.621282217,-0.008342515,-1.631467858,0.028401375,Subject B,Distracted
0.005820765,0.759177593,-0.033982104,0.049735914,-0.012362145,Subject B,Distracted
0.005928176,0.766712497,-0.036580186,2.802343712,-0.04028066,Subject B,Distracted
0.00603691,0.413452092,-0.009200615,3.004127859,-0.012024398,Subject B,Distracted
0.006146899,-0.048447789,0.027206595,0.661492813,0.127327141,Subject B,Distracted
0.006258072,-0.147363796,0.043162074,-0.821176956,0.39935961,Subject B,Distracted
0.006370363,0.21469175,0.020964,0.624899001,0.705839216,Subject B,Distracted
0.006483704,0.604353918,-0.030274638,2.952375716,0.843884564,Subject B,Distracted
0.006598029,0.555422732,-0.073786912,2.882192505,0.690485158,Subject B,Distracted
0.006713272,0.1033736,-0.072017893,0.439767164,0.367341237,Subject B,Distracted
0.006829371,-0.310629553,-0.02625797,-1.101128021,0.140028401,Subject B,Distracted
0.00694626,-0.412774982,0.016666755,0.194198817,0.118100429,Subject B,Distracted
0.007063876,-0.379815249,0.009656002,2.127073361,0.120233778,Subject B,Distracted
0.007182154,-0.491848052,-0.044535125,1.328943457,-0.096211637,Subject B,Distracted
0.007301032,-0.696969285,-0.099150379,-1.925060192,-0.508140888,Subject B,Distracted
0.007420447,-0.717116589,-0.116372609,-3.662999591,-0.820453132,Subject B,Distracted
0.007540339,-0.503565251,-0.09859645,-1.261809765,-0.803546221,Subject B,Distracted
0.007660647,-0.341490882,-0.066715229,2.97962713,-0.561456125,Subject B,Distracted
0.007781312,-0.436278383,-0.030550065,4.536452073,-0.407126529,Subject B,Distracted
0.007902275,-0.579204022,0.005495583,2.229557107,-0.507740907,Subject B,Distracted
0.00802348,-0.392854271,0.026445518,-0.49250907,-0.725434569,Subject B,Distracted
0.008144869,0.140386314,0.020042323,-0.137530569,-0.816680838,Subject B,Distracted
0.008266388,0.573134848,-0.000717702,2.384971498,-0.720278225,Subject B,Distracted
0.00838798,0.500764404,-0.009489162,3.170932185,-0.587187844,Subject B,Distracted
0.008509593,0.074545592,8.2e-05,0.608763988,-0.551071929,Subject B,Distracted
0.008631172,-0.148153085,0.01052221,-2.449770287,-0.557809581,Subject B,Distracted
0.008752665,0.124485674,0.01100214,-2.45560588,-0.469079212,Subject B,Distracted
0.00887402,0.553542784,0.015122309,0.179689519,-0.279903662,Subject B,Distracted
0.008995188,0.587565944,0.042184425,1.736751981,-0.143485419,Subject B,Distracted
0.009116119,0.156172238,0.091771656,0.233675071,-0.169294371,Subject B,Distracted
0.009236766,-0.222716477,0.145445918,-1.947891985,-0.273752447,Subject B,Distracted
0.009357081,-0.05388828,0.188495654,-1.378772762,-0.287467872,Subject B,Distracted
0.009477018,0.549806394,0.21985835,1.672027837,-0.170595968,Subject B,Distracted
0.009596533,1.001384237,0.238593088,3.465997522,-0.046316449,Subject B,Distracted
0.009715583,0.912143478,0.231301329,1.670189404,-0.018050689,Subject B,Distracted
0.009834124,0.489812379,0.185978047,-1.618103358,-0.030931498,Subject B,Distracted
0.009952116,0.211351879,0.116843164,-2.62456831,0.03242522,Subject B,Distracted
0.010069519,0.226799349,0.06048372,-0.714912223,0.166534707,Subject B,Distracted
0.010186293,0.259919255,0.04030132,1.012555649,0.241238689,Subject B,Distracted
0.0103024,0.080751951,0.044539695,-0.008725167,0.193917089,Subject B,Distracted
0.010417802,-0.139454021,0.047632199,-2.40235481,0.14068891,Subject B,Distracted
0.010532463,-0.084728437,0.044314834,-2.793991496,0.230812503,Subject B,Distracted
0.010646346,0.211618408,0.048720822,-0.477089625,0.426905764,Subject B,Distracted
0.010759415,0.347605985,0.061193392,1.520423451,0.520173786,Subject B,Distracted
0.010871635,0.072899485,0.053010029,0.508581248,0.389591959,Subject B,Distracted
0.010982973,-0.340413462,-0.001329513,-2.134407171,0.17100613,Subject B,Distracted
0.011093395,-0.405859941,-0.079545566,-2.768353465,0.096884562,Subject B,Distracted
0.01120287,-0.04433162,-0.117459732,-0.534403814,0.204651677,Subject B,Distracted
0.011311365,0.297105801,-0.073841351,1.264587537,0.296414844,Subject B,Distracted
0.011418849,0.211075522,0.016317492,-0.431858601,0.198908696,Subject B,Distracted
0.011525292,-0.152630944,0.069843836,-4.038926642,-0.019815395,Subject B,Distracted
0.011630662,-0.305265173,0.039841219,-4.996347484,-0.145910662,Subject B,Distracted
0.011734924,-0.079237401,-0.039785416,-1.603389031,-0.087857001,Subject B,Distracted
0.011838047,0.162235312,-0.098029562,2.566228287,0.022286711,Subject B,Distracted
0.011939997,0.047010489,-0.101383487,2.950764204,0.004265212,Subject B,Distracted
0.012040739,-0.269116644,-0.073451681,-0.428359368,-0.152337679,Subject B,Distracted
0.012140239,-0.287203189,-0.050093767,-3.187983567,-0.296383751,Subject B,Distracted
0.012238462,0.176126507,-0.037931332,-2.191486401,-0.320177656,Subject B,Distracted
0.012335372,0.74685388,-0.026216974,0.690938408,-0.290329427,Subject B,Distracted
0.012430935,0.990921362,-0.021253372,1.3389827,-0.347082784,Subject B,Distracted
0.012525117,0.971818274,-0.044060752,-1.138238911,-0.51031493,Subject B,Distracted
0.012617885,1.114922691,-0.093746211,-3.366083513,-0.633731722,Subject B,Distracted
0.012709201,1.579259083,-0.13515371,-2.302020263,-0.563048417,Subject B,Distracted
0.012799032,2.014346274,-0.134814196,0.741631794,-0.316296583,Subject B,Distracted
0.012887341,2.039221661,-0.098515389,1.95265075,-0.079610319,Subject B,Distracted
0.012974091,1.771177154,-0.061017991,0.135441734,-0.021813779,Subject B,Distracted
0.013059243,1.665974748,-0.04238448,-1.835619026,-0.137431502,Subject B,Distracted
0.013142761,1.89057475,-0.026748052,-1.099881081,-0.288010695,Subject B,Distracted
0.013224604,2.090635504,0.011255714,1.217879983,-0.371757025,Subject B,Distracted
0.013304735,1.87671501,0.068281747,1.583032859,-0.407783517,Subject B,Distracted
0.013383115,1.385646566,0.113418811,-1.003305104,-0.453010857,Subject B,Distracted
0.013459707,1.157774655,0.126831404,-3.487868742,-0.496367864,Subject B,Distracted
0.013534471,1.454770005,0.121273048,-2.827600744,-0.48601703,Subject B,Distracted
0.013607369,1.887278938,0.116073583,-0.163868434,-0.434174631,Subject B,Distracted
0.013678363,1.851538805,0.103570151,0.628625025,-0.42679319,Subject B,Distracted
0.013747416,1.248995419,0.060868125,-1.779514359,-0.513417388,Subject B,Distracted
0.013814488,0.603787578,-0.006567176,-4.159262462,-0.634405205,Subject B,Distracted
0.01387954,0.445092271,-0.053493096,-2.882130456,-0.686366292,Subject B,Distracted
0.013942533,0.707177844,-0.040543919,1.144575695,-0.630506154,Subject B,Distracted
0.01400343,0.841515243,0.016270928,3.418433565,-0.506187129,Subject B,Distracted
0.014062189,0.468611744,0.057608312,1.564778011,-0.362569138,Subject B,Distracted
0.014118775,-0.211985122,0.044994733,-1.698170014,-0.222054582,Subject B,Distracted
0.014173148,-0.699826912,8.09e-05,-2.264832746,-0.106547185,Subject B,Distracted
0.014225272,-0.774112644,-0.027890783,-0.043203955,-0.050488025,Subject B,Distracted
0.014275111,-0.671809479,-0.021490321,1.136563104,-0.063795531,Subject B,Distracted
0.014322631,-0.707232429,-0.005854962,-1.098493421,-0.107736082,Subject B,Distracted
0.014367796,-0.874229252,-0.005656242,-4.269116424,-0.134991269,Subject B,Distracted
0.014410573,-0.940399828,-0.013664992,-4.223388506,-0.146846614,Subject B,Distracted
0.014450931,-0.855127861,-0.011240304,-0.678926316,-0.190980939,Subject B,Distracted
0.014488837,-0.868192873,-0.00343488,2.245907246,-0.29741858,Subject B,Distracted
0.014524261,-1.168472178,-0.012562859,1.250217415,-0.422114893,Subject B,Distracted
0.014557172,-1.554563818,-0.037437018,-1.999793747,-0.462685947,Subject B,Distracted
0.014587537,-1.650605791,-0.041116978,-3.151325933,-0.345893189,Subject B,Distracted
0.014615326,-1.417688049,0.003931428,-0.827499812,-0.110736783,Subject B,Distracted
0.014640508,-1.240081843,0.069253783,1.697791235,0.108839471,Subject B,Distracted
0.014663053,-1.415822235,0.093626339,0.901770207,0.206535628,Subject B,Distracted
0.014682931,-1.732415808,0.056254543,-2.332366393,0.204285369,Subject B,Distracted
0.014700111,-1.736660174,0.004445421,-3.899738578,0.20383646,Subject B,Distracted
0.014714563,-1.35832664,-0.003885048,-1.89941973,0.236782729,Subject B,Distracted
0.014726257,-1.036620709,0.032111902,0.885506136,0.20797677,Subject B,Distracted
0.014735163,-1.16311131,0.063234235,0.740068419,0.032784687,Subject B,Distracted
0.014741251,-1.587459989,0.052913817,-2.012421439,-0.194197856,Subject B,Distracted
0.014744489,-1.840591414,0.010590552,-3.47096738,-0.253187563,Subject B,Distracted
0.014744847,-1.751468063,-0.035762712,-1.406253653,-0.064009587,Subject B,Distracted
0.014742292,-1.625178978,-0.077507599,1.752536934,0.169018771,Subject B,Distracted
0.014736794,-1.777340426,-0.123316089,2.135369616,0.162705978,Subject B,Distracted
0.014728325,-2.084209666,-0.171636767,-0.523137365,-0.113043974,Subject B,Distracted
0.014716856,-2.151530539,-0.204262548,-2.689721061,-0.398554473,Subject B,Distracted
0.014702361,-1.856665738,-0.209509916,-1.788287676,-0.456084398,Subject B,Distracted
0.014684819,-1.52915432,-0.19691039,0.495237797,-0.331238406,Subject B,Distracted
0.014664212,-1.52543105,-0.179741876,0.671600754,-0.244728187,Subject B,Distracted
0.014640526,-1.754823711,-0.154014127,-1.716210446,-0.286368685,Subject B,Distracted
0.014613745,-1.785199904,-0.109724051,-3.389523622,-0.317810168,Subject B,Distracted
0.014583851,-1.411829276,-0.058690178,-1.747820552,-0.182452912,Subject B,Distracted
0.014550833,-0.958734279,-0.033554616,1.490096353,0.081234303,Subject B,Distracted
0.014514693,-0.894314258,-0.051903961,2.375191241,0.294384144,Subject B,Distracted
0.014475439,-1.227680681,-0.089759453,-0.119922692,0.35696479,Subject B,Distracted
0.014433067,-1.478175502,-0.100271822,-2.74373161,0.336898065,Subject B,Distracted
0.014387553,-1.289153051,-0.06107046,-2.294837767,0.345552358,Subject B,Distracted
0.014338881,-0.888708466,-0.000576278,0.099887757,0.396470314,Subject B,Distracted
0.014287081,-0.775868008,0.027748561,0.546872029,0.425146477,Subject B,Distracted
0.014232223,-1.04730964,0.001941484,-2.219728737,0.407241391,Subject B,Distracted
0.014174322,-1.273083541,-0.040081083,-4.892958721,0.396559141,Subject B,Distracted
0.014113286,-1.087465603,-0.038358475,-3.876034312,0.439136595,Subject B,Distracted
0.014049012,-0.690768258,0.018102347,-0.169487864,0.494595687,Subject B,Distracted
0.013981594,-0.580443334,0.066911349,1.717749271,0.479366266,Subject B,Distracted
0.013911335,-0.875300043,0.030632268,-0.476793056,0.375388186,Subject B,Distracted
0.013838382,-1.148400698,-0.100626831,-3.865698209,0.256692874,Subject B,Distracted
0.013762356,-0.99401708,-0.252218998,-4.158912125,0.19795638,Subject B,Distracted
0.013682668,-0.560491813,-0.331052481,-1.18065881,0.190323419,Subject B,Distracted
0.013599487,-0.339045349,-0.305011435,0.989564512,0.176873885,Subject B,Distracted
0.013514091,-0.511717919,-0.21993964,-0.622600992,0.152789214,Subject B,Distracted
0.013427435,-0.730490273,-0.14671765,-4.024072699,0.184989039,Subject B,Distracted
0.013338145,-0.589524642,-0.117052322,-4.885497574,0.313906652,Subject B,Distracted
0.013243229,-0.147889894,-0.109990038,-2.174593196,0.46678346,Subject B,Distracted
0.013142403,0.15374693,-0.092332829,0.58731762,0.516950623,Subject B,Distracted
0.013040916,0.037566475,-0.057940464,0.030208962,0.437196273,Subject B,Distracted
0.012944353,-0.297926119,-0.021705319,-2.676998287,0.349027236,Subject B,Distracted
0.012848464,-0.450352195,0.010275458,-3.576337064,0.383822163,Subject B,Distracted
0.012738787,-0.293205842,0.043546027,-1.405219659,0.521705323,Subject B,Distracted
0.012608978,-0.066334595,0.069249372,0.630713404,0.615730446,Subject B,Distracted
0.012480812,-0.011822607,0.057954821,-0.747230137,0.570547148,Subject B,Distracted
0.012394717,-0.070137385,-0.005668834,-4.274557281,0.448695332,Subject B,Distracted
0.012368812,-0.033640005,-0.090970368,-5.650845429,0.383730764,Subject B,Distracted
0.012370341,0.088831656,-0.139591557,-3.228537032,0.42529764,Subject B,Distracted
0.012339444,0.036788193,-0.118607166,-0.211499014,0.49933402,Subject B,Distracted
0.012243365,-0.331687291,-0.050285683,-0.380428277,0.501641446,Subject B,Distracted
0.012100225,-0.781706346,0.011795906,-3.105769332,0.400820442,Subject B,Distracted
0.011950451,-0.956612113,0.032097407,-4.339989529,0.253975193,Subject B,Distracted
0.011815821,-0.83906804,0.017444581,-2.202030648,0.146224398,Subject B,Distracted
0.01168999,-0.78128337,-0.00319131,0.402745265,0.123851274,Subject B,Distracted
0.011558498,-1.022603285,-0.015610428,-0.303019124,0.171902457,Subject B,Distracted
0.011417096,-1.332231859,-0.030122282,-3.748668329,0.234602181,Subject B,Distracted
0.011271373,-1.286497034,-0.054031104,-5.568222942,0.251202034,Subject B,Distracted
0.011126584,-0.836722221,-0.067137361,-3.342138681,0.192110913,Subject B,Distracted
0.010982451,-0.403058364,-0.042127678,0.074472378,0.084210075,Subject B,Distracted
0.01083599,-0.347604949,0.011099728,0.168172123,0.00186488,Subject B,Distracted
0.010685838,-0.516876029,0.043316637,-3.337219375,0.016935328,Subject B,Distracted
0.010532963,-0.461702163,0.02173174,-6.071767629,0.141276592,Subject B,Distracted
0.010378659,-0.048717004,-0.02712885,-4.683225199,0.306888115,Subject B,Distracted
0.01022311,0.335603852,-0.049892029,-1.157766485,0.406317381,Subject B,Distracted
0.010065746,0.256782274,-0.032999633,-0.138635507,0.376904772,Subject B,Distracted
0.009906208,-0.217258631,-0.012309695,-2.801661169,0.264079635,Subject B,Distracted
0.009744669,-0.578156163,-0.015934367,-5.362368607,0.190913786,Subject B,Distracted
0.009581457,-0.46723001,-0.025231348,-4.143516462,0.244044072,Subject B,Distracted
0.009416693,-0.057511303,-0.008075183,-0.474345915,0.387963655,Subject B,Distracted
0.009250305,0.221313046,0.027372147,1.03229633,0.504197844,Subject B,Distracted
0.009082233,0.223499511,0.036233327,-1.488128417,0.515942003,Subject B,Distracted
0.008912531,0.197995244,-0.006646874,-4.754358382,0.458497901,Subject B,Distracted
0.008741303,0.377426263,-0.071365606,-4.668964626,0.416074858,Subject B,Distracted
0.008568621,0.637981503,-0.101967255,-1.6272035,0.406151053,Subject B,Distracted
0.00839451,0.688390976,-0.072895505,0.160524636,0.363493818,Subject B,Distracted
0.008218987,0.505765444,-0.008758132,-1.641803081,0.250859928,Subject B,Distracted
0.008042095,0.395468972,0.046701063,-4.384762114,0.142308626,Subject B,Distracted
0.007863887,0.571822619,0.069646409,-4.02137321,0.1415767,Subject B,Distracted
0.007684413,0.837785578,0.064230546,-0.558499717,0.226946654,Subject B,Distracted
0.00750371,0.834160464,0.045770532,1.914611671,0.246437545,Subject B,Distracted
0.007321813,0.53934403,0.02521409,0.587753149,0.102055123,Subject B,Distracted
0.007138759,0.32154429,0.003643953,-2.514191201,-0.110769501,Subject B,Distracted
0.00695459,0.447400643,-0.026325653,-3.40665991,-0.208300959,Subject B,Distracted
0.006769347,0.717615108,-0.06994846,-1.440968794,-0.146482931,Subject B,Distracted
0.00658307,0.742070908,-0.116392501,0.068184643,-0.076282001,Subject B,Distracted
0.006395797,0.484269291,-0.143094514,-1.426005245,-0.149142821,Subject B,Distracted
0.006207567,0.327642967,-0.141276493,-4.083992244,-0.318633588,Subject B,Distracted
0.00601842,0.568154152,-0.128119554,-4.06403505,-0.388665872,Subject B,Distracted
0.005828396,1.012566616,-0.12231553,-0.715665526,-0.245972367,Subject B,Distracted
0.005637532,1.212221894,-0.115455689,2.368307438,0.008817976,Subject B,Distracted
0.005445868,1.020398683,-0.084833384,1.883259198,0.181595159,Subject B,Distracted
0.00525344,0.753569383,-0.033329694,-1.00822028,0.201484431,Subject B,Distracted
0.005060288,0.764127888,0.004422938,-2.296501988,0.176189966,Subject B,Distracted
0.004866449,0.985537941,0.006639822,-0.381089567,0.233824091,Subject B,Distracted
0.004671961,1.033823036,-0.000641266,1.925774774,0.357486571,Subject B,Distracted
0.00447686,0.728362998,0.027152302,1.244847313,0.417520117,Subject B,Distracted
0.004281185,0.352875633,0.094388879,-1.780345119,0.345836238,Subject B,Distracted
0.004084973,0.311363945,0.156153205,-3.275812744,0.215034563,Subject B,Distracted
0.003888262,0.618303212,0.169740976,-1.319044982,0.127464049,Subject B,Distracted
0.003691089,0.88130122,0.13714117,1.407427922,0.084071294,Subject B,Distracted
0.003493493,0.799359875,0.090549093,1.138444554,0.014503719,Subject B,Distracted
0.003295513,0.531303676,0.054189357,-1.902278205,-0.095926439,Subject B,Distracted
0.003097188,0.457171065,0.034992014,-3.68835978,-0.181223599,Subject B,Distracted
0.002898558,0.651526334,0.038802493,-1.671547587,-0.20162818,Subject B,Distracted
0.002699663,0.772766459,0.074376675,1.821468973,-0.207448878,Subject B,Distracted
0.002500544,0.522834847,0.138561218,2.576423952,-0.257900823,Subject B,Distracted
0.002301239,0.064238467,0.209589153,-0.071069353,-0.322740461,Subject B,Distracted
0.002101789,-0.168629613,0.260300484,-2.474675512,-0.320509139,Subject B,Distracted
0.001902234,-0.014228273,0.275173585,-1.543917612,-0.238506704,Subject B,Distracted
0.001702612,0.241609148,0.257357794,1.193004174,-0.162887991,Subject B,Distracted
0.001502963,0.279475474,0.226370046,1.700251047,-0.181328589,Subject B,Distracted
