timestamps,TP9,AF7,AF8,TP10,Subject,Emotion
-0.006680979,0.070675398,-0.190877624,0.120294655,0.134747939,Subject A,Distracted
-0.007035727,0.118840466,-0.099247307,0.281618991,0.237273066,Subject A,Distracted
-0.00738977,-0.058105567,0.005977434,-0.060924533,0.278785325,Subject A,Distracted
-0.007743016,-0.245015975,0.054331119,-0.447247445,0.211265478,Subject A,Distracted
-0.008095371,-0.157083372,0.020745183,-0.350401924,0.135612492,Subject A,Distracted
-0.008446741,0.125774214,-0.051605015,0.12399072,0.177508325,Subject A,Distracted
-0.008797033,0.201673254,-0.098127143,0.368281708,0.322991716,Subject A,Distracted
-0.009146151,-0.117281287,-0.0901078,0.076861287,0.423148468,Subject A,Distracted
-0.009494,-0.479512942,-0.04417328,-0.341413319,0.373491824,Subject A,Distracted
-0.009840483,-0.389471841,0.004775829,-0.318552736,0.237038589,Subject A,Distracted
-0.010185503,0.132114605,0.025104381,0.085202853,0.144944903,Subject A,Distracted
-0.010528961,0.523843815,-6.9e-06,0.25218088,0.116959564,Subject A,Distracted
-0.010870757,0.396415842,-0.052946516,-0.131267682,0.057361541,Subject A,Distracted
-0.011210789,0.058723162,-0.072996549,-0.594759673,-0.071794258,Subject A,Distracted
-0.011548954,0.130789745,0.000748895,-0.467030148,-0.148507552,Subject A,Distracted
-0.011885149,0.729355051,0.156500282,0.228120105,-0.008086435,Subject A,Distracted
-0.012219268,1.291126259,0.298949177,0.753463437,0.355852189,Subject A,Distracted
-0.012551205,1.256299287,0.339920612,0.569465073,0.738106895,Subject A,Distracted
-0.012880853,0.723379365,0.291601633,0.006370329,0.880537738,Subject A,Distracted
-0.013208105,0.266512682,0.240725713,-0.175930444,0.688563901,Subject A,Distracted
-0.013532854,0.202098237,0.236995958,0.229116779,0.292325911,Subject A,Distracted
-0.01385499,0.252650828,0.245617836,0.628279215,-0.102768529,Subject A,Distracted
-0.014174403,-0.007459955,0.214969165,0.429732915,-0.402786462,Subject A,Distracted
-0.014490985,-0.548866423,0.149556016,-0.170266903,-0.64225152,Subject A,Distracted
-0.014804624,-0.919970737,0.095328167,-0.440603722,-0.847013596,Subject A,Distracted
-0.015115209,-0.848391823,0.082581839,-0.060537117,-0.951293563,Subject A,Distracted
-0.015422629,-0.588696099,0.106069075,0.475052946,-0.881135777,Subject A,Distracted
-0.015726775,-0.548269242,0.139583832,0.494947677,-0.675501134,Subject A,Distracted
-0.016027535,-0.714523232,0.148368425,-0.004464761,-0.467591734,Subject A,Distracted
-0.016324799,-0.68184692,0.105620605,-0.381490244,-0.347825642,Subject A,Distracted
-0.016618459,-0.247177672,0.0237197,-0.179868609,-0.289117166,Subject A,Distracted
-0.016908406,0.251387145,-0.037728672,0.308662255,-0.22005162,Subject A,Distracted
-0.017194531,0.335979298,-0.02120203,0.453926971,-0.131831774,Subject A,Distracted
-0.017476727,0.002617121,0.064157609,0.111194325,-0.078534342,Subject A,Distracted
-0.017754887,-0.272719472,0.142860356,-0.219022392,-0.088872559,Subject A,Distracted
-0.018028904,-0.140267825,0.149262304,-0.083176642,-0.118272115,Subject A,Distracted
-0.018298674,0.205251332,0.095558072,0.316144147,-0.100581382,Subject A,Distracted
-0.018564093,0.321854889,0.052510581,0.401443492,-0.024874529,Subject A,Distracted
-0.01882506,0.112474703,0.068715983,0.009633384,0.059115026,Subject A,Distracted
-0.019081475,-0.071460898,0.125154653,-0.364840694,0.098959959,Subject A,Distracted
-0.01933324,0.064565948,0.168905341,-0.212470557,0.0749531,Subject A,Distracted
-0.019580261,0.328022256,0.171592004,0.297090865,-0.015323524,Subject A,Distracted
-0.019822444,0.276377823,0.145452684,0.508664234,-0.161015542,Subject A,Distracted
-0.020059699,-0.167906277,0.118706672,0.146297079,-0.304954983,Subject A,Distracted
-0.020291935,-0.549559762,0.111349366,-0.305040427,-0.348756994,Subject A,Distracted
-0.020519067,-0.432957445,0.126521234,-0.254281954,-0.240974506,Subject A,Distracted
-0.020741009,0.020568782,0.149040965,0.172977613,-0.054371027,Subject A,Distracted
-0.020957678,0.231352039,0.154393107,0.296426256,0.064731631,Subject A,Distracted
-0.021168995,-0.061433,0.133433056,-0.15689989,0.042491223,Subject A,Distracted
-0.021374881,-0.46016271,0.111548508,-0.619685268,-0.039083827,Subject A,Distracted
-0.021575259,-0.416748034,0.132910856,-0.42483907,-0.022891993,Subject A,Distracted
-0.021770058,0.074992103,0.216681847,0.258981985,0.151945237,Subject A,Distracted
-0.021959205,0.494499421,0.328998662,0.59081766,0.369675357,Subject A,Distracted
-0.022142635,0.463928226,0.403250234,0.146576506,0.44618508,Subject A,Distracted
-0.022320281,0.181458399,0.392567586,-0.505657926,0.316351102,Subject A,Distracted
-0.022492085,0.086373753,0.305940684,-0.523056666,0.090649222,Subject A,Distracted
-0.022657986,0.246551828,0.197406348,0.128522641,-0.081502573,Subject A,Distracted
-0.022817929,0.285689486,0.12420611,0.629672401,-0.172209621,Subject A,Distracted
-0.022971862,-0.079569398,0.111934216,0.347606182,-0.267015098,Subject A,Distracted
-0.023119734,-0.619659464,0.146711646,-0.378063518,-0.416685916,Subject A,Distracted
-0.023261499,-0.838981177,0.190357469,-0.680341166,-0.552799362,Subject A,Distracted
-0.023397112,-0.566151329,0.206375808,-0.238636721,-0.573740587,Subject A,Distracted
-0.023526533,-0.137145592,0.181012987,0.37854651,-0.477693855,Subject A,Distracted
-0.023649724,0.047073278,0.124888771,0.487227197,-0.364063515,Subject A,Distracted
-0.023766652,0.01783045,0.058017781,0.137599005,-0.306293108,Subject A,Distracted
-0.023877289,0.156936859,-0.004148095,-0.054115116,-0.269808728,Subject A,Distracted
-0.023981608,0.641172697,-0.055253439,0.191000794,-0.185026624,Subject A,Distracted
-0.024079589,1.145338979,-0.096890233,0.434903443,-0.069488272,Subject A,Distracted
-0.024171214,1.225423946,-0.130833184,0.177354534,-0.014310377,Subject A,Distracted
-0.02425647,0.899588783,-0.146589555,-0.385471528,-0.037340647,Subject A,Distracted
-0.024335345,0.639834211,-0.123159556,-0.568286513,-0.020446915,Subject A,Distracted
-0.024407835,0.751446302,-0.053615956,-0.104961045,0.138997061,Subject A,Distracted
-0.024473937,0.955055441,0.035791977,0.46403254,0.349370478,Subject A,Distracted
-0.024533652,0.745182281,0.100501212,0.451887442,0.3937631,Subject A,Distracted
-0.024586984,0.07981033,0.111320838,-0.113460746,0.19889789,Subject A,Distracted
-0.02463394,-0.490220942,0.073600639,-0.52648315,-0.041344676,Subject A,Distracted
-0.024674533,-0.438188045,0.02249001,-0.292090514,-0.067012651,Subject A,Distracted
-0.024708774,0.126328388,1.83e-05,0.255558717,0.156928806,Subject A,Distracted
-0.02473668,0.592028613,0.021917459,0.392152684,0.406018006,Subject A,Distracted
-0.024758269,0.548727509,0.060545271,-0.051196202,0.449952108,Subject A,Distracted
-0.024773561,0.20068832,0.071237518,-0.466098779,0.294071394,Subject A,Distracted
-0.024782577,0.02142186,0.039654796,-0.285516398,0.143119457,Subject A,Distracted
-0.024785343,0.130877111,-0.005679393,0.232635354,0.15253325,Subject A,Distracted
-0.024781885,0.191738384,-0.025887856,0.333080613,0.265589676,Subject A,Distracted
-0.024772234,-0.077258937,-0.0028654,-0.202406804,0.314727331,Subject A,Distracted
-0.024756421,-0.475379776,0.059456386,-0.709864245,0.244505107,Subject A,Distracted
-0.02473448,-0.557718693,0.143578086,-0.494205591,0.172241466,Subject A,Distracted
-0.024706448,-0.227430836,0.220470153,0.231240039,0.216587989,Subject A,Distracted
-0.024672363,0.109694133,0.260501748,0.579419158,0.330616768,Subject A,Distracted
-0.024632265,0.054164858,0.257427655,0.11774769,0.365487364,Subject A,Distracted
-0.024586199,-0.272439507,0.236005897,-0.578244716,0.267520147,Subject A,Distracted
-0.024534208,-0.391086938,0.226424369,-0.664139059,0.132101844,Subject A,Distracted
-0.024476341,-0.101786014,0.235312059,-0.090452296,0.059608367,Subject A,Distracted
-0.024412644,0.250523451,0.248800151,0.380263852,0.043997886,Subject A,Distracted
-0.024343167,0.246699885,0.257506071,0.188079729,0.049424558,Subject A,Distracted
-0.024267961,-0.022018827,0.266032947,-0.327792261,0.122026305,Subject A,Distracted
-0.024187075,-0.062073739,0.277637545,-0.437315121,0.322409598,Subject A,Distracted
-0.024100563,0.333883016,0.282087699,-0.007709644,0.56021312,Subject A,Distracted
-0.024008475,0.753957824,0.267993765,0.353514917,0.619755002,Subject A,Distracted
-0.023910867,0.688696074,0.242209657,0.150956783,0.421383145,Subject A,Distracted
-0.023807792,0.229270168,0.224513189,-0.327344199,0.178953489,Subject A,Distracted
-0.023699305,-0.025176322,0.220271457,-0.413417505,0.187678023,Subject A,Distracted
-0.023585464,0.248044276,0.210316518,0.027217887,0.471103386,Subject A,Distracted
-0.023466323,0.67844005,0.176538245,0.412035685,0.737805031,Subject A,Distracted
-0.023341939,0.710281003,0.128385565,0.241941719,0.71355264,Subject A,Distracted
-0.023212365,0.332636537,0.092065239,-0.19320013,0.444383056,Subject A,Distracted
-0.023077658,0.061183011,0.078118925,-0.178612413,0.220551403,Subject A,Distracted
-0.022937869,0.239366503,0.071483993,0.457602833,0.236563032,Subject A,Distracted
-0.022793053,0.609243676,0.05337841,1.08076402,0.388383235,Subject A,Distracted
-0.022643262,0.686818432,0.023607933,1.060994615,0.420298489,Subject A,Distracted
-0.02248855,0.399540056,-0.002531528,0.57931323,0.230939137,Subject A,Distracted
-0.02232897,0.141198241,-0.013946138,0.365818395,-0.018357714,Subject A,Distracted
-0.022164578,0.213378244,-0.013263564,0.737973561,-0.107615327,Subject A,Distracted
-0.021995428,0.432463457,-0.007265823,1.20577301,-0.016757232,Subject A,Distracted
-0.021821579,0.420228567,0.002920845,1.13382782,0.079538637,Subject A,Distracted
-0.021643085,0.149367564,0.016190942,0.57608208,0.060679527,Subject A,Distracted
-0.021460004,-0.024115865,0.023532615,0.202032191,0.018127631,Subject A,Distracted
-0.021272392,0.112715193,0.016930025,0.422581057,0.112745838,Subject A,Distracted
-0.021080301,0.29071797,0.005597541,0.853233696,0.327722008,Subject A,Distracted
-0.020883789,0.114825413,0.013214208,0.811652385,0.453782676,Subject A,Distracted
-0.020682907,-0.345471397,0.052911104,0.211764069,0.33289246,Subject A,Distracted
-0.020477712,-0.561992566,0.107410905,-0.298156197,0.054347219,Subject A,Distracted
-0.020268256,-0.204990738,0.138584099,-0.142820499,-0.129659422,Subject A,Distracted
-0.020054595,0.391652773,0.119257901,0.44817479,-0.05674546,Subject A,Distracted
-0.019836782,0.59858215,0.058142653,0.720796559,0.213439378,Subject A,Distracted
-0.019614873,0.26540677,-0.004389425,0.344487479,0.508082169,Subject A,Distracted
-0.01938892,-0.079169038,-0.027960034,-0.180343067,0.728878495,Subject A,Distracted
-0.019158979,0.115281155,-0.006285926,-0.18572223,0.890866989,Subject A,Distracted
-0.018925104,0.718023834,0.027414958,0.287146862,1.004177084,Subject A,Distracted
-0.018687349,1.075167222,0.030316896,0.550596071,1.006387033,Subject A,Distracted
-0.018445768,0.84780627,-0.014165396,0.196080621,0.864138835,Subject A,Distracted
-0.018200413,0.443043995,-0.086233991,-0.34577253,0.683588196,Subject A,Distracted
-0.017951339,0.451873032,-0.145856496,-0.365962259,0.620271947,Subject A,Distracted
-0.017698601,0.831609588,-0.159827966,0.174501457,0.676615619,Subject A,Distracted
-0.017442253,0.956551551,-0.129780071,0.569919562,0.693828059,Subject A,Distracted
-0.017182354,0.509067126,-0.101760477,0.286812228,0.599621757,Subject A,Distracted
-0.016918958,-0.007731141,-0.131850572,-0.327453302,0.557814995,Subject A,Distracted
-0.016652122,0.091045283,-0.225504293,-0.490884596,0.733547025,Subject A,Distracted
-0.016381905,0.688060961,-0.317627909,-0.012191152,0.95532059,Subject A,Distracted
-0.016108375,0.895207654,-0.32908099,0.467102563,0.804389303,Subject A,Distracted
-0.015831593,0.136207947,-0.245984147,0.339077451,0.110858059,Subject A,Distracted
-0.015551616,-1.114210036,-0.135929316,-0.172525222,-0.781817937,Subject A,Distracted
-0.015268494,-1.889203571,-0.08388463,-0.363392128,-1.364482628,Subject A,Distracted
-0.014982293,-1.847281437,-0.117096129,-0.03475727,-1.49895013,Subject A,Distracted
-0.014693103,-1.552010889,-0.193200642,0.26807738,-1.497117423,Subject A,Distracted
-0.014401011,-1.66560601,-0.251936748,0.069896482,-1.701052016,Subject A,Distracted
-0.014106056,-2.144025668,-0.268948421,-0.338687634,-2.096086221,Subject A,Distracted
-0.013808246,-2.387479915,-0.262420729,-0.301055987,-2.367812542,Subject A,Distracted
-0.013507642,-2.04438935,-0.260268287,0.265330307,-2.274288085,Subject A,Distracted
-0.01320442,-1.42757501,-0.270300756,0.681388437,-1.901447831,Subject A,Distracted
-0.012898768,-1.086299313,-0.280569947,0.356294459,-1.555477736,Subject A,Distracted
-0.012590682,-1.139052146,-0.279498163,-0.41770286,-1.445455693,Subject A,Distracted
-0.012279949,-1.203515522,-0.268918655,-0.775813745,-1.503197451,Subject A,Distracted
-0.011966518,-0.960700177,-0.258992102,-0.341946504,-1.507947909,Subject A,Distracted
-0.011650864,-0.595925326,-0.255724258,0.298116583,-1.344373012,Subject A,Distracted
-0.011333678,-0.544478647,-0.255966088,0.335288436,-1.098345337,Subject A,Distracted
-0.011014891,-0.881252847,-0.254322137,-0.237298209,-0.914843265,Subject A,Distracted
-0.010693326,-1.168628039,-0.253669951,-0.629876251,-0.825869318,Subject A,Distracted
-0.010368136,-0.98892943,-0.264792886,-0.288972829,-0.755496296,Subject A,Distracted
-0.010040798,-0.478422785,-0.29036648,0.388238351,-0.653547067,Subject A,Distracted
-0.009714412,-0.153524926,-0.311147093,0.584547688,-0.554325571,Subject A,Distracted
-0.009389374,-0.247233998,-0.298447204,0.121422965,-0.49423926,Subject A,Distracted
-0.009060544,-0.429405799,-0.246647089,-0.34974916,-0.434757201,Subject A,Distracted
-0.008722448,-0.274529331,-0.185943296,-0.239622726,-0.319936805,Subject A,Distracted
-0.008379448,0.156746955,-0.151974804,0.219190337,-0.182663566,Subject A,Distracted
-0.008046122,0.398491263,-0.14594976,0.334392727,-0.123503265,Subject A,Distracted
-0.007728926,0.20396396,-0.1395661,-0.092726094,-0.171221745,Subject A,Distracted
-0.007406198,-0.128623488,-0.122297219,-0.510762017,-0.225914409,Subject A,Distracted
-0.007037622,-0.162738541,-0.124583154,-0.377398643,-0.179386463,Subject A,Distracted
-0.006605192,0.08817312,-0.177449692,0.102521939,-0.05047624,Subject A,Distracted
-0.006141777,0.187620575,-0.261488158,0.251499795,0.045424935,Subject A,Distracted
-0.005707352,-0.108969693,-0.321024206,-0.160917331,0.036774092,Subject A,Distracted
-0.005334784,-0.480359606,-0.328333442,-0.587694647,-0.040528319,Subject A,Distracted
-0.005006068,-0.429350281,-0.309367126,-0.419221454,-0.112063797,Subject A,Distracted
-0.004680888,0.069212314,-0.299387198,0.197979165,-0.158180775,Subject A,Distracted
-0.004337582,0.527609875,-0.296908295,0.531315005,-0.225672656,Subject A,Distracted
-0.003982605,0.561053417,-0.276898629,0.206326824,-0.35489585,Subject A,Distracted
-0.003630532,0.332693228,-0.233117673,-0.315542178,-0.49998573,Subject A,Distracted
-0.003285725,0.261073071,-0.188639596,-0.347177384,-0.538561158,Subject A,Distracted
-0.002942705,0.431629137,-0.170666678,0.138457357,-0.394135337,Subject A,Distracted
-0.002596331,0.518350762,-0.187187386,0.504459233,-0.150962053,Subject A,Distracted
-0.002246992,0.290647561,-0.223256807,0.303355633,-0.00090708,Subject A,Distracted
-0.001897784,-0.015861685,-0.25048355,-0.15486753,-0.047174047,Subject A,Distracted
-0.001550183,0.010735042,-0.245191426,-0.248097913,-0.194018989,Subject A,Distracted
-0.001203335,0.385917015,-0.207595392,0.123066222,-0.26597865,Subject A,Distracted
-0.000856057,0.654642314,-0.162232853,0.424063729,-0.205783829,Subject A,Distracted
-0.000508279,0.454607906,-0.133350007,0.230357561,-0.102629733,Subject A,Distracted
-0.000160683,-0.002206429,-0.121231542,-0.178223918,-0.038082146,Subject A,Distracted
0.000186259,-0.176700659,-0.107318128,-0.18246353,0.026743859,Subject A,Distracted
0.000532604,0.11535305,-0.080127805,0.317816147,0.175338131,Subject A,Distracted
0.000878565,0.465679772,-0.049655323,0.703347155,0.387030465,Subject A,Distracted
0.001224149,0.404208493,-0.034562056,0.408996685,0.525552728,Subject A,Distracted
0.001569166,0.024260442,-0.03902582,-0.308127332,0.490826537,Subject A,Distracted
0.001913439,-0.120828569,-0.047781207,-0.632082348,0.344612521,Subject A,Distracted
0.002256902,0.25168897,-0.047816264,-0.194657251,0.24795837,Subject A,Distracted
0.002599545,0.732768252,-0.051677296,0.454845766,0.282952515,Subject A,Distracted
0.002941319,0.689207095,-0.088316235,0.539735721,0.378424298,Subject A,Distracted
0.003282131,0.056524891,-0.164145743,0.027997457,0.424849583,Subject A,Distracted
0.003621882,-0.557172649,-0.240983546,-0.368806433,0.413460869,Subject A,Distracted
0.003960495,-0.59645218,-0.265126187,-0.14785509,0.409899126,Subject A,Distracted
0.004297908,-0.182312742,-0.218792704,0.343905138,0.420266711,Subject A,Distracted
0.004634051,0.135578512,-0.134841983,0.398210449,0.369120434,Subject A,Distracted
0.004968845,0.107188704,-0.061877739,-0.113493381,0.234720359,Subject A,Distracted
0.005302208,0.019022923,-0.025327564,-0.575693808,0.133265756,Subject A,Distracted
0.005634061,0.199354451,-0.023197194,-0.423956369,0.197429413,Subject A,Distracted
0.005964328,0.528279139,-0.044330122,0.141644007,0.389655646,Subject A,Distracted
0.006292934,0.61067706,-0.077363173,0.425475824,0.508875644,Subject A,Distracted
0.0066198,0.337381592,-0.104540022,0.123173548,0.413036295,Subject A,Distracted
0.006944846,0.055785318,-0.098647716,-0.315396972,0.193082293,Subject A,Distracted
0.007267993,0.116501267,-0.036074132,-0.306674169,0.077836047,Subject A,Distracted
0.007589163,0.397442423,0.081246286,0.083896134,0.176280972,Subject A,Distracted
0.007908278,0.442826058,0.216842657,0.243678592,0.357777568,Subject A,Distracted
0.008225263,0.055820144,0.320614025,-0.127346849,0.397101925,Subject A,Distracted
0.008540039,-0.420746821,0.368142331,-0.571363126,0.204920879,Subject A,Distracted
0.008852533,-0.523058425,0.380751511,-0.481055973,-0.107478483,Subject A,Distracted
0.009162669,-0.266042291,0.402369263,0.049742839,-0.368474088,Subject A,Distracted
0.009470372,-0.135077273,0.455143854,0.317618844,-0.507842535,Subject A,Distracted
0.009775572,-0.447482685,0.520132699,-0.044871173,-0.569674096,Subject A,Distracted
0.010078197,-0.908675115,0.561479819,-0.549502249,-0.607577251,Subject A,Distracted
0.010378175,-0.967811344,0.564420406,-0.48903712,-0.617701014,Subject A,Distracted
0.010675439,-0.523043261,0.545306219,0.10557046,-0.572970541,Subject A,Distracted
0.010969921,-0.043901893,0.528347607,0.480977231,-0.476089918,Subject A,Distracted
0.011261555,0.047074452,0.522163818,0.155954716,-0.354037427,Subject A,Distracted
0.011550273,-0.103095579,0.522757321,-0.425209738,-0.22244395,Subject A,Distracted
0.011836011,-0.040118322,0.531155026,-0.474848659,-0.081089107,Subject A,Distracted
0.012118703,0.338527021,0.55591115,0.076813733,0.057931132,Subject A,Distracted
0.012398284,0.631862169,0.59446422,0.46864585,0.157140687,Subject A,Distracted
0.012674692,0.472260681,0.619346532,0.12038771,0.186768761,Subject A,Distracted
0.012947863,0.010653498,0.594097914,-0.570861122,0.171663216,Subject A,Distracted
0.013217737,-0.276135279,0.509765624,-0.722549001,0.178883762,Subject A,Distracted
0.013484253,-0.173329176,0.403448174,-0.112906539,0.232399386,Subject A,Distracted
0.013747352,0.044842509,0.33201695,0.522286947,0.25887255,Subject A,Distracted
0.014006976,0.006434282,0.322838834,0.427995295,0.167011109,Subject A,Distracted
0.014263068,-0.265816287,0.353746516,-0.222724978,-0.012115066,Subject A,Distracted
0.014515572,-0.382216572,0.381631289,-0.584455371,-0.118676689,Subject A,Distracted
0.014764434,-0.096318105,0.381615703,-0.230108093,-0.04140972,Subject A,Distracted
0.0150096,0.35042585,0.354771382,0.343001363,0.128220517,Subject A,Distracted
0.015251018,0.50288298,0.31199503,0.400812068,0.180397252,Subject A,Distracted
0.015488638,0.255351597,0.266993298,-0.086895472,0.031162105,Subject A,Distracted
0.01572241,-0.020601918,0.23989925,-0.461721753,-0.17504551,Subject A,Distracted
0.015952288,0.031413526,0.24594859,-0.267441983,-0.240386305,Subject A,Distracted
0.016178223,0.277905023,0.271302475,0.175149595,-0.146577236,Subject A,Distracted
0.016400173,0.287798585,0.274559978,0.229265738,-0.056121592,Subject A,Distracted
0.016618092,-0.041970847,0.228933798,-0.203488724,-0.100110762,Subject A,Distracted
0.016831938,-0.283241402,0.160313758,-0.557717152,-0.233695609,Subject A,Distracted
0.017041668,-0.023006125,0.128470415,-0.358092106,-0.320752099,Subject A,Distracted
0.017247243,0.53910794,0.1642304,0.145519837,-0.305517871,Subject A,Distracted
0.017448623,0.769272308,0.233612429,0.306024635,-0.250194501,Subject A,Distracted
0.017645768,0.378477252,0.273074114,-0.058979785,-0.222500036,Subject A,Distracted
0.017838643,-0.190305692,0.256395007,-0.429104069,-0.201741545,Subject A,Distracted
0.018027213,-0.278945125,0.215605602,-0.295654942,-0.118803241,Subject A,Distracted
0.018211447,0.209530055,0.194338405,0.144414976,0.034833735,Subject A,Distracted
0.018391315,0.73151838,0.192604925,0.265604565,0.171339384,Subject A,Distracted
0.018566787,0.771543437,0.168400078,-0.120837091,0.191552911,Subject A,Distracted
0.018737836,0.39985474,0.091454674,-0.495225593,0.09219691,Subject A,Distracted
0.018904432,0.075497072,-0.014222446,-0.319746139,-0.037049295,Subject A,Distracted
