timestamps,TP9,AF7,AF8,TP10,Subject,Emotion
0.04080009,-0.512437035,-0.050791097,-2.055284283,-0.683693358,Subject B,Distracted
0.040980201,-0.303519527,-0.056756075,-0.215377069,-0.606248136,Subject B,Distracted
0.041154179,-0.282492296,-0.078152088,1.954509794,-0.539473886,Subject B,Distracted
0.041322008,-0.572957668,-0.082294619,1.818665426,-0.500463504,Subject B,Distracted
0.041483673,-0.866752504,-0.069859691,-0.275962615,-0.454049826,Subject B,Distracted
0.041639164,-0.764880097,-0.058912106,-1.386163641,-0.32183886,Subject B,Distracted
0.041788469,-0.302500438,-0.050955048,0.143674172,-0.084172083,Subject B,Distracted
0.041931577,0.056992997,-0.028313954,2.46063594,0.144165489,Subject B,Distracted
0.042068483,0.004435307,0.015568412,2.657306974,0.192291674,Subject B,Distracted
0.042199177,-0.222559822,0.056004231,0.670086332,0.017354952,Subject B,Distracted
0.042323656,-0.177165231,0.057760554,-0.587217705,-0.21470183,Subject B,Distracted
0.042441914,0.190965464,0.015180791,0.92230447,-0.28073069,Subject B,Distracted
0.042553948,0.487201289,-0.036583414,3.596594643,-0.141032347,Subject B,Distracted
0.042659753,0.421386724,-0.0548664,4.171824666,0.015188952,Subject B,Distracted
0.042759327,0.190475542,-0.030506446,1.877091214,-0.00691782,Subject B,Distracted
0.042852666,0.198508577,0.007806906,-0.584146827,-0.182804482,Subject B,Distracted
0.042939767,0.518407668,0.026279421,-0.426307989,-0.323953045,Subject B,Distracted
0.04302063,0.807704182,0.017097139,1.829760421,-0.325543079,Subject B,Distracted
0.043095253,0.770363956,-0.002005121,3.22765685,-0.2647277,Subject B,Distracted
0.043163638,0.551212053,-0.011725153,2.250153554,-0.241521674,Subject B,Distracted
0.043225784,0.536901779,-0.010078792,0.650776931,-0.227005414,Subject B,Distracted
0.043281693,0.807399996,-0.009953671,0.947562692,-0.142042954,Subject B,Distracted
0.043331367,0.973636274,-0.023117435,2.988906234,-0.022149229,Subject B,Distracted
0.043374809,0.673324878,-0.048068869,4.192763379,0.003551222,Subject B,Distracted
0.04341202,0.103955946,-0.070778493,3.108093517,-0.095897966,Subject B,Distracted
0.043443005,-0.156664111,-0.075655424,1.423879197,-0.170887755,Subject B,Distracted
0.043467767,0.125528581,-0.058233121,1.637062015,-0.058305774,Subject B,Distracted
0.043486307,0.523150244,-0.029605013,3.55986579,0.207240331,Subject B,Distracted
0.043498628,0.50284675,-0.007411182,4.507139721,0.417241717,Subject B,Distracted
0.043504733,0.138926196,-0.000318535,2.970257165,0.428732777,Subject B,Distracted
0.043504624,0.012734888,-2.77e-05,0.749962882,0.322175997,Subject B,Distracted
0.043498303,0.416498244,0.012610631,0.575940928,0.285197774,Subject B,Distracted
0.04348577,0.945921765,0.052105634,2.403357609,0.381179719,Subject B,Distracted
0.043467025,1.03910391,0.112604766,3.428112286,0.501428704,Subject B,Distracted
0.043442068,0.715014351,0.163201283,1.870681469,0.54207945,Subject B,Distracted
0.043410897,0.510944434,0.164784874,-0.515413675,0.542892099,Subject B,Distracted
0.04337351,0.743451272,0.103103348,-0.613701535,0.595537562,Subject B,Distracted
0.043329903,1.113882406,0.008807402,1.984531009,0.668622218,Subject B,Distracted
0.043280072,1.148896208,-0.062957136,4.343341487,0.618250978,Subject B,Distracted
0.043224012,0.835040713,-0.080351653,3.881489744,0.386510879,Subject B,Distracted
0.043161719,0.611356666,-0.059973618,1.628787911,0.116564257,Subject B,Distracted
0.043093188,0.777112686,-0.038837748,0.764764194,0.013982583,Subject B,Distracted
0.043018413,1.112362152,-0.025875148,2.343202545,0.118826192,Subject B,Distracted
0.042937391,1.187164949,0.005895052,3.887444575,0.270634878,Subject B,Distracted
0.042850116,0.933044176,0.075250613,2.77140169,0.302569171,Subject B,Distracted
0.042756585,0.725824718,0.153844826,-0.119832975,0.221393984,Subject B,Distracted
0.042656793,0.879914365,0.185941651,-1.387880516,0.164075014,Subject B,Distracted
0.042550737,1.236233268,0.146941097,0.49058755,0.205023528,Subject B,Distracted
0.042438415,1.397726268,0.071752653,3.18179243,0.264477487,Subject B,Distracted
0.042319823,1.276982954,0.020415693,3.526436189,0.230097759,Subject B,Distracted
0.04219496,1.190309041,0.022329335,1.568330131,0.126438635,Subject B,Distracted
0.042063824,1.371996589,0.060623154,0.292533355,0.101434174,Subject B,Distracted
0.041926416,1.594344342,0.104661986,1.511264253,0.23681345,Subject B,Distracted
0.041782734,1.438481575,0.142534763,3.434178796,0.426539209,Subject B,Distracted
0.041632782,0.880822799,0.174952275,3.151654985,0.490991637,Subject B,Distracted
0.041476559,0.421553724,0.189633242,0.651950838,0.396822524,Subject B,Distracted
0.041314068,0.544661795,0.163746454,-1.058315713,0.309141493,Subject B,Distracted
0.041145312,1.145637735,0.100991474,0.070510921,0.39926575,Subject B,Distracted
0.040970293,1.632315769,0.050743288,2.359531721,0.636722883,Subject B,Distracted
0.040789016,1.595357693,0.065955319,2.571823515,0.825356218,Subject B,Distracted
0.040601486,1.249668789,0.137967612,0.206465052,0.836859808,Subject B,Distracted
0.040407709,1.133762694,0.193923519,-1.779292954,0.738493612,Subject B,Distracted
0.04020769,1.465622093,0.175269923,-0.842715385,0.662023774,Subject B,Distracted
0.040001437,1.944431125,0.108007907,1.766068163,0.619982098,Subject B,Distracted
0.039788957,2.179219667,0.074637675,2.608184268,0.534236113,Subject B,Distracted
0.039570259,2.130146397,0.118112407,0.521812183,0.417470222,Subject B,Distracted
0.039345351,2.006513889,0.194712301,-1.959479899,0.413787013,Subject B,Distracted
0.039114242,1.858636783,0.229647468,-2.021837586,0.603842938,Subject B,Distracted
0.038876942,1.513772813,0.201046979,-0.182347845,0.835238505,Subject B,Distracted
0.038633461,0.968273224,0.151810327,0.633363561,0.844323076,Subject B,Distracted
0.038383813,0.626944903,0.127698974,-0.883524669,0.559530545,Subject B,Distracted
0.038128008,0.921880252,0.126331187,-2.74270597,0.213980794,Subject B,Distracted
0.037866064,1.716811984,0.112720823,-2.446608513,0.106968182,Subject B,Distracted
0.037597996,2.322530603,0.068883159,-0.40942479,0.281192348,Subject B,Distracted
0.037323822,2.236512585,0.013889548,0.592435331,0.487497737,Subject B,Distracted
0.03704356,1.726047634,-0.021397326,-0.782707963,0.468157817,Subject B,Distracted
0.036757231,1.47645687,-0.027483838,-2.504495558,0.225379853,Subject B,Distracted
0.036464856,1.713583366,-0.019950783,-1.843623901,-0.01999855,Subject B,Distracted
0.036166457,1.929294827,-0.015897666,0.788142347,-0.099841131,Subject B,Distracted
0.03586206,1.573997202,-0.014324392,2.088479079,-0.064202669,Subject B,Distracted
0.03555169,0.811852145,-0.001377112,0.139093699,-0.066907878,Subject B,Distracted
0.035235374,0.349824663,0.030839888,-2.896573792,-0.155621566,Subject B,Distracted
0.034913142,0.565849013,0.076113402,-3.381243937,-0.241062813,Subject B,Distracted
0.034585023,1.065786459,0.120658167,-0.826880054,-0.249033751,Subject B,Distracted
0.034251048,1.215226066,0.149001313,1.534967549,-0.221538728,Subject B,Distracted
0.03391125,0.923656548,0.146149961,0.997234436,-0.239591305,Subject B,Distracted
0.033565661,0.677682535,0.110311892,-1.18045641,-0.301035512,Subject B,Distracted
0.033214315,0.841070828,0.07102474,-1.658550708,-0.333172658,Subject B,Distracted
0.032857249,1.175749164,0.077964999,0.374082499,-0.314344259,Subject B,Distracted
0.0324945,1.193450224,0.150742476,2.090675717,-0.317425924,Subject B,Distracted
0.032126107,0.837529839,0.243065392,0.878350202,-0.394569225,Subject B,Distracted
0.031752111,0.580564598,0.276991773,-2.06901444,-0.459969889,Subject B,Distracted
0.031372555,0.807654718,0.218864925,-3.245884311,-0.362404799,Subject B,Distracted
0.030987482,1.293569368,0.109948172,-1.403802506,-0.088883281,Subject B,Distracted
0.030596936,1.465104352,0.020313916,0.871574275,0.167756733,Subject B,Distracted
0.030200965,1.127680144,-0.012460797,0.592483834,0.197956558,Subject B,Distracted
0.029799615,0.727281279,0.005182238,-1.771032733,0.006760452,Subject B,Distracted
0.029392938,0.800691435,0.050445758,-3.022026013,-0.199289786,Subject B,Distracted
0.028980982,1.305476059,0.101201992,-1.484706214,-0.253881723,Subject B,Distracted
0.028563799,1.678774145,0.132228426,0.813026252,-0.202491167,Subject B,Distracted
0.028141442,1.535249093,0.122611004,0.774514401,-0.20660736,Subject B,Distracted
0.027713963,1.103862356,0.08235828,-1.819572733,-0.323679748,Subject B,Distracted
0.027281414,0.879160425,0.057718244,-4.107377787,-0.442910805,Subject B,Distracted
0.026843848,0.993227618,0.087796951,-3.799823404,-0.437245463,Subject B,Distracted
0.026401318,1.121507079,0.154309672,-1.928554749,-0.320143592,Subject B,Distracted
0.025953878,0.975425035,0.19106291,-1.277400632,-0.212065913,Subject B,Distracted
0.025501582,0.679396999,0.151939692,-2.703287196,-0.177251566,Subject B,Distracted
0.025044484,0.550345322,0.060568112,-4.145872967,-0.15083721,Subject B,Distracted
0.024582641,0.62829581,-0.015535324,-3.493179306,-0.050559513,Subject B,Distracted
0.024116109,0.622255057,-0.033533016,-1.437683249,0.078088328,Subject B,Distracted
0.023644945,0.340809692,-0.009849123,-0.545236663,0.0901548,Subject B,Distracted
0.023169206,-0.004082987,0.00720789,-1.803202437,-0.071977291,Subject B,Distracted
0.022688953,-0.06531263,-0.012507417,-3.293350721,-0.277852242,Subject B,Distracted
0.022204243,0.143530531,-0.057237348,-2.831829363,-0.348877299,Subject B,Distracted
0.021715138,0.202450011,-0.089443138,-1.05266617,-0.269219334,Subject B,Distracted
0.021221699,-0.212542079,-0.082506133,-0.695913926,-0.191232503,Subject B,Distracted
0.020723988,-0.904533396,-0.045376433,-2.929114133,-0.237943032,Subject B,Distracted
0.020222067,-1.357262374,-0.012835767,-5.608850689,-0.368818214,Subject B,Distracted
0.019716,-1.335079131,-0.013007089,-5.880851268,-0.459626274,Subject B,Distracted
0.01920585,-1.154270603,-0.047856641,-3.742886909,-0.45851143,Subject B,Distracted
0.018691684,-1.299516687,-0.102433526,-1.924678615,-0.421822702,Subject B,Distracted
0.018173566,-1.859480338,-0.161538083,-2.332098918,-0.420801736,Subject B,Distracted
0.01765156,-2.452598762,-0.211159336,-3.771441894,-0.456721038,Subject B,Distracted
0.017125734,-2.68142653,-0.232956584,-3.834915022,-0.477421657,Subject B,Distracted
0.01659615,-2.533599816,-0.213431487,-2.272038828,-0.453886674,Subject B,Distracted
0.016062874,-2.303792587,-0.164591833,-1.306680661,-0.410612566,Subject B,Distracted
0.015525971,-2.233350782,-0.12517647,-2.55326719,-0.370718562,Subject B,Distracted
0.014985505,-2.317982804,-0.125882345,-4.741007135,-0.299377743,Subject B,Distracted
0.014441542,-2.419022217,-0.15136928,-5.30699398,-0.145598404,Subject B,Distracted
0.013894149,-2.452565045,-0.151489437,-3.710533691,0.0579343,Subject B,Distracted
0.013343392,-2.434570189,-0.101147507,-2.066245896,0.187892039,Subject B,Distracted
0.012789336,-2.397719916,-0.038700326,-2.315036789,0.158546791,Subject B,Distracted
0.012232049,-2.333747708,-0.027955892,-3.718036163,0.027272529,Subject B,Distracted
0.011671597,-2.236815517,-0.085430755,-3.942683569,-0.073156785,Subject B,Distracted
0.011108047,-2.161788746,-0.163572334,-2.221770415,-0.094464836,Subject B,Distracted
0.010541467,-2.168787026,-0.207456989,-0.363429056,-0.107233378,Subject B,Distracted
0.009971926,-2.190855068,-0.20805119,-0.290960324,-0.155106145,Subject B,Distracted
0.00939949,-2.042538419,-0.19099575,-1.452972292,-0.13625779,Subject B,Distracted
0.00882423,-1.654629273,-0.17304358,-1.64949172,0.082160381,Subject B,Distracted
0.008246212,-1.252676365,-0.150801418,-0.180518437,0.428421694,Subject B,Distracted
0.007665503,-1.159609841,-0.124610901,1.036150102,0.610416242,Subject B,Distracted
0.007082171,-1.393826,-0.108303478,0.04123082,0.41895217,Subject B,Distracted
0.006496284,-1.591674761,-0.106170838,-2.319394416,-0.005847679,Subject B,Distracted
0.005907911,-1.413928051,-0.095368373,-3.211050619,-0.31011048,Subject B,Distracted
0.005317117,-0.95342431,-0.048257142,-1.381661765,-0.311120208,Subject B,Distracted
0.004723972,-0.631279408,0.028202169,1.149685444,-0.14900995,Subject B,Distracted
0.004128541,-0.698363418,0.089102322,1.583739312,-0.047058496,Subject B,Distracted
0.003530892,-0.939288351,0.096988318,-0.114677415,-0.02843725,Subject B,Distracted
0.002931093,-0.932978652,0.066196093,-1.229699305,0.056197573,Subject B,Distracted
0.002329209,-0.559763125,0.051531112,0.069691395,0.272277173,Subject B,Distracted
0.001725305,-0.143812409,0.089752327,2.224955385,0.473111706,Subject B,Distracted
0.001119446,-0.061546254,0.157993594,2.311533875,0.461068857,Subject B,Distracted
0.000511693,-0.310443985,0.194695857,-0.008274132,0.227902815,Subject B,Distracted
-9.79e-05,-0.565584295,0.159549779,-1.881363596,-0.023971073,Subject B,Distracted
-0.000709244,-0.604296389,0.069789877,-0.907777198,-0.102407332,Subject B,Distracted
-0.001322314,-0.532093001,-0.019864467,1.728014544,-0.022809302,Subject B,Distracted
-0.001937044,-0.572211517,-0.0672134,2.757252363,0.045328293,Subject B,Distracted
-0.002553384,-0.762308943,-0.07131504,0.997348862,0.003367434,Subject B,Distracted
-0.00317128,-0.946255748,-0.056865303,-1.217258004,-0.059333802,Subject B,Distracted
-0.003790683,-1.012395234,-0.038592125,-1.111122837,0.008655883,Subject B,Distracted
-0.004411549,-1.053785878,-0.00923532,1.024625419,0.219514465,Subject B,Distracted
-0.00503384,-1.277024316,0.03555081,2.396076592,0.421775173,Subject B,Distracted
-0.005657517,-1.783824602,0.070992751,1.439173575,0.478474919,Subject B,Distracted
-0.006282531,-2.470786584,0.057716066,-0.264225853,0.425289759,Subject B,Distracted
-0.006908829,-3.147418403,-0.013062864,-0.313516476,0.412397656,Subject B,Distracted
-0.007536373,-3.704796063,-0.099381998,1.222464098,0.499448123,Subject B,Distracted
-0.008165152,-4.100411537,-0.143234376,2.02915568,0.563655383,Subject B,Distracted
-0.008795147,-4.214524521,-0.122492052,0.878407564,0.449235542,Subject B,Distracted
-0.009426297,-3.894238575,-0.062828872,-0.590654668,0.174238871,Subject B,Distracted
-0.010058507,-3.24262063,-0.004701186,-0.132014364,-0.072506955,Subject B,Distracted
-0.010691734,-2.719774013,0.029395903,1.907731992,-0.139168427,Subject B,Distracted
-0.011326053,-2.731626929,0.036935685,2.896329646,-0.059958798,Subject B,Distracted
-0.011961551,-3.12065298,0.022563713,1.411843438,0.01853193,Subject B,Distracted
-0.012598124,-3.278560887,-0.003202775,-0.783963728,0.009961928,Subject B,Distracted
-0.01323546,-2.857177344,-0.017491135,-1.024150802,-0.048703264,Subject B,Distracted
-0.013873409,-2.19515486,0.006133447,0.734910654,-0.078848078,Subject B,Distracted
-0.01451235,-1.879313279,0.071327665,1.873831728,-0.059175163,Subject B,Distracted
-0.015152878,-2.012608896,0.144929768,0.645049922,-0.034525197,Subject B,Distracted
-0.01579483,-2.162888294,0.180122799,-1.443166289,-0.049081758,Subject B,Distracted
-0.01643694,-2.012907091,0.158687216,-1.598315385,-0.092938015,Subject B,Distracted
-0.017078264,-1.769725193,0.10745459,0.554400288,-0.118295049,Subject B,Distracted
-0.017720192,-1.784236432,0.070820718,2.475924758,-0.094262119,Subject B,Distracted
-0.018365731,-1.973074494,0.069092018,2.068536279,-0.032398197,Subject B,Distracted
-0.019015184,-1.888195289,0.084332573,0.399934216,0.034300123,Subject B,Distracted
-0.019663322,-1.344940478,0.083212617,0.179860509,0.07869214,Subject B,Distracted
-0.020304578,-0.743155489,0.051185021,2.047094184,0.085569594,Subject B,Distracted
-0.020943224,-0.629553128,0.006049306,3.639553364,0.054347499,Subject B,Distracted
-0.021593744,-1.04565545,-0.021098876,2.703965963,0.013171135,Subject B,Distracted
-0.022262505,-1.472538615,-0.019923744,0.124841109,0.016147513,Subject B,Distracted
-0.022927749,-1.426186051,-0.014045346,-1.134523014,0.095599429,Subject B,Distracted
-0.02354907,-0.97381431,-0.034232912,0.216453992,0.20688564,Subject B,Distracted
-0.024108366,-0.582849893,-0.077748687,2.267375328,0.244068742,Subject B,Distracted
-0.024638409,-0.540810724,-0.102758901,2.553296915,0.139385113,Subject B,Distracted
-0.025199077,-0.663983627,-0.070464711,1.309453354,-0.052344312,Subject B,Distracted
-0.025823141,-0.606631622,0.009748254,0.982163108,-0.193543905,Subject B,Distracted
-0.026492496,-0.334378825,0.083713435,2.688320156,-0.202892899,Subject B,Distracted
-0.027166724,-0.15216439,0.101753558,4.483592554,-0.138331625,Subject B,Distracted
-0.027824059,-0.26945981,0.060862027,3.884923902,-0.118310535,Subject B,Distracted
-0.028470851,-0.491448516,-0.001873008,1.276316945,-0.170654252,Subject B,Distracted
-0.029121568,-0.46144008,-0.050517256,-0.438403361,-0.200833941,Subject B,Distracted
-0.02978046,-0.136802599,-0.077768693,0.482002404,-0.125882735,Subject B,Distracted
-0.030441939,0.152107515,-0.094085798,2.478495498,0.006622515,Subject B,Distracted
-0.031100752,0.145660528,-0.102433046,2.845371116,0.086120451,Subject B,Distracted
-0.031757173,-0.013317535,-0.09416217,1.2325175,0.100961803,Subject B,Distracted
-0.032414184,-0.012672736,-0.065359874,-0.063335226,0.1533472,Subject B,Distracted
-0.033073142,0.180297845,-0.023761298,0.772978902,0.293925712,Subject B,Distracted
-0.033733075,0.296531621,0.023083271,2.720017356,0.418231563,Subject B,Distracted
-0.03439268,0.189317221,0.072936337,3.364271837,0.390429053,Subject B,Distracted
-0.035051761,0.088901287,0.114704936,2.154153848,0.230561345,Subject B,Distracted
-0.035710877,0.309845252,0.124266579,1.112309338,0.102358879,Subject B,Distracted
-0.036370369,0.800296376,0.092286622,2.003151912,0.110732141,Subject B,Distracted
-0.037030048,1.160975715,0.048953947,3.744719677,0.174119506,Subject B,Distracted
-0.037689563,1.136370979,0.03865135,3.714261804,0.136954471,Subject B,Distracted
-0.038348768,0.929564105,0.065780694,1.39859057,-0.021738164,Subject B,Distracted
-0.039007708,0.914035583,0.083443959,-0.561144179,-0.150327785,Subject B,Distracted
-0.039666415,1.126768977,0.045830306,0.391542651,-0.111330151,Subject B,Distracted
-0.040324802,1.225252441,-0.039087706,3.328398298,0.040586074,Subject B,Distracted
-0.040982729,0.974129781,-0.117758486,4.832749302,0.122801011,Subject B,Distracted
-0.041640086,0.617491883,-0.142471486,3.240446658,0.05600536,Subject B,Distracted
-0.04229681,0.614998627,-0.106101099,0.688538431,-0.041498041,Subject B,Distracted
-0.042952839,1.034525043,-0.035694306,0.361631642,-0.028393621,Subject B,Distracted
-0.043608086,1.386939184,0.034368677,2.509101483,0.05088432,Subject B,Distracted
-0.044262448,1.188592294,0.083952713,4.288435194,0.017029663,Subject B,Distracted
-0.044915823,0.590385066,0.111701338,3.487232946,-0.191356335,Subject B,Distracted
-0.045568121,0.241192854,0.122212505,1.261664037,-0.404566487,Subject B,Distracted
-0.04621925,0.503406839,0.111165834,0.467186063,-0.406520936,Subject B,Distracted
-0.046869116,1.025394006,0.070181555,1.928423224,-0.180845469,Subject B,Distracted
-0.04751762,1.239838062,0.007610672,3.560374865,0.085402975,Subject B,Distracted
-0.04816466,1.109428009,-0.047214674,3.344947771,0.219407714,Subject B,Distracted
-0.048810135,1.111475012,-0.069515368,2.028996438,0.219297887,Subject B,Distracted
-0.049453947,1.52500359,-0.061658499,1.901812467,0.186654767,Subject B,Distracted
-0.050095992,2.035827196,-0.041415043,3.433013669,0.167794481,Subject B,Distracted
-0.050736165,2.178194848,-0.016415665,4.493440316,0.119989273,Subject B,Distracted
-0.051374361,1.955660947,0.015330559,3.288094505,0.018621668,Subject B,Distracted
-0.052010472,1.798741559,0.045658791,0.953499265,-0.072440873,Subject B,Distracted
-0.05264439,1.979412376,0.058399967,0.181352251,-0.079092036,Subject B,Distracted
-0.053276006,2.29261759,0.055746996,1.678319587,-0.031992042,Subject B,Distracted
-0.05390521,2.369521495,0.063119566,3.255439389,-0.042233314,Subject B,Distracted
-0.054531888,2.152257698,0.095118671,2.775343185,-0.155822183,Subject B,Distracted
-0.055155927,1.9303292,0.129226158,0.979532605,-0.283219968,Subject B,Distracted
-0.055777211,1.943103442,0.129415051,0.436506373,-0.300810549,Subject B,Distracted
-0.056395624,2.06907089,0.091757709,2.082611969,-0.188457824,Subject B,Distracted
-0.057011049,1.981052673,0.052701427,3.977038874,-0.034809649,Subject B,Distracted
-0.057623366,1.572143426,0.049634018,3.878290309,0.068379159,Subject B,Distracted
-0.058232453,1.123110808,0.081026818,2.192695812,0.099692841,Subject B,Distracted
-0.058838187,0.987670222,0.109733959,1.377015608,0.090712606,Subject B,Distracted
-0.059440443,1.175796755,0.102218324,2.575287419,0.077866017,Subject B,Distracted
-0.060039096,1.357249509,0.059896127,3.991722609,0.079623888,Subject B,Distracted
-0.060634017,1.270893503,0.012994397,3.263810731,0.095835331,Subject B,Distracted
-0.061225076,1.012139361,-0.009485509,0.730908535,0.113387772,Subject B,Distracted
-0.061812143,0.864197411,-0.000469068,-0.815895436,0.115392445,Subject B,Distracted
-0.062395086,0.938442303,0.026576208,0.330829787,0.088370452,Subject B,Distracted
-0.06297377,1.083907804,0.050017449,2.615638228,0.024432109,Subject B,Distracted
-0.063548061,1.12896131,0.05302857,3.267247752,-0.071566455,Subject B,Distracted
-0.064117822,1.105415274,0.03477844,1.868599012,-0.170556994,Subject B,Distracted
-0.064682915,1.175545407,0.01421699,0.767945834,-0.226825012,Subject B,Distracted
