timestamps,TP9,AF7,AF8,TP10,Subject,Emotion
0.002324986,0.936822896,-0.191325743,-3.642122543,0.757031181,Subject A,Distracted
0.002349647,1.066304634,-0.250495671,-3.526304855,0.981650914,Subject A,Distracted
0.002373963,1.453630244,-0.220440178,-2.198928779,0.976487779,Subject A,Distracted
0.002397971,1.633724945,-0.086882381,-1.440141218,0.737823527,Subject A,Distracted
0.002421702,1.418136799,0.087281333,-2.278283088,0.497619416,Subject A,Distracted
0.002445189,1.220075235,0.221828851,-3.629621319,0.470448265,Subject A,Distracted
0.002468461,1.540969135,0.28718396,-3.730539675,0.619325738,Subject A,Distracted
0.002491542,2.263156913,0.306310043,-2.456704667,0.724278616,Subject A,Distracted
0.002514459,2.714860416,0.311693348,-1.46728698,0.638664936,Subject A,Distracted
0.002537231,2.474911755,0.322437841,-2.039181251,0.425201438,Subject A,Distracted
0.00255988,1.900253696,0.351885867,-3.478651365,0.271454387,Subject A,Distracted
0.002582423,1.699807828,0.408026293,-4.12894584,0.322963964,Subject A,Distracted
0.002604875,2.098975364,0.47837243,-3.537214596,0.580684675,Subject A,Distracted
0.002627252,2.643306511,0.532080474,-2.913786236,0.913702845,Subject A,Distracted
0.002649564,2.837077399,0.550745899,-3.376335949,1.171687538,Subject A,Distracted
0.002671823,2.753503037,0.553134613,-4.404880217,1.314456822,Subject A,Distracted
0.002694039,2.858711369,0.580950158,-4.584482685,1.43459413,Subject A,Distracted
0.002716219,3.342803696,0.657742894,-3.606826748,1.635840229,Subject A,Distracted
0.002738372,3.846517106,0.763053265,-2.796976085,1.891889448,Subject A,Distracted
0.002760507,3.914111686,0.848840779,-3.401561346,2.050098011,Subject A,Distracted
0.00278263,3.579182166,0.883298795,-4.893135213,1.9973842,Subject A,Distracted
0.002804751,3.350975693,0.879192192,-5.581026685,1.82119871,Subject A,Distracted
0.002826875,3.622353758,0.877973564,-4.784057761,1.764629666,Subject A,Distracted
0.002849013,4.211244076,0.903530199,-3.711570671,1.96981259,Subject A,Distracted
0.002871171,4.573681153,0.931036416,-3.858824672,2.287189761,Subject A,Distracted
0.002893357,4.43378527,0.909196614,-5.028069404,2.432124914,Subject A,Distracted
0.002915579,4.084657688,0.823549375,-5.628997925,2.347492037,Subject A,Distracted
0.002937844,3.998166593,0.7318155,-4.87246835,2.294047727,Subject A,Distracted
0.002960156,4.23285431,0.716217114,-3.887050941,2.510461012,Subject A,Distracted
0.002982521,4.404105603,0.794022915,-4.202824882,2.89060275,Subject A,Distracted
0.003004946,4.243715721,0.890427749,-5.617467805,3.118024814,Subject A,Distracted
0.003027435,3.961368961,0.911623191,-6.351733867,3.058838264,Subject A,Distracted
0.003049992,3.900090102,0.837788243,-5.362616725,2.881849089,Subject A,Distracted
0.003072622,4.004822113,0.734589722,-3.775291592,2.797216691,Subject A,Distracted
0.003095329,3.902887975,0.677780356,-3.507646665,2.813444391,Subject A,Distracted
0.003118116,3.491647232,0.678451911,-4.825358056,2.805117635,Subject A,Distracted
0.003140984,3.16268824,0.684916921,-5.980814561,2.715193647,Subject A,Distracted
0.003163935,3.29105823,0.647087222,-5.421349262,2.588824653,Subject A,Distracted
0.003186967,3.67133294,0.566600808,-3.741007791,2.452617011,Subject A,Distracted
0.003210084,3.698988071,0.484356324,-2.873237036,2.274757385,Subject A,Distracted
0.003233288,3.112534559,0.43400484,-3.598976584,2.062730044,Subject A,Distracted
0.003256577,2.359233826,0.420692465,-4.628500423,1.916194289,Subject A,Distracted
0.003279943,2.10476063,0.437790129,-4.403524975,1.929998967,Subject A,Distracted
0.003303383,2.465239819,0.482153149,-3.151618417,2.076499142,Subject A,Distracted
0.003326903,2.877424873,0.542928788,-2.460111776,2.225983232,Subject A,Distracted
0.003350515,2.754313031,0.589051448,-3.043206425,2.28296756,Subject A,Distracted
0.003374214,2.140379203,0.586341221,-3.78700052,2.28078392,Subject A,Distracted
0.003397975,1.599954346,0.530843889,-3.333975927,2.323736712,Subject A,Distracted
0.003421774,1.515976105,0.457702866,-1.986601166,2.434638859,Subject A,Distracted
0.003445636,1.682455384,0.410549026,-1.316882427,2.492566151,Subject A,Distracted
0.003469617,1.66507879,0.400882595,-2.016445831,2.365687584,Subject A,Distracted
0.003493721,1.411892339,0.399656107,-2.905768196,2.096712063,Subject A,Distracted
0.003517838,1.298779008,0.370648244,-2.466130544,1.892741489,Subject A,Distracted
0.003541845,1.571472676,0.30972258,-0.882502843,1.901004246,Subject A,Distracted
0.003565815,1.96598093,0.2468758,0.118829918,2.040520861,Subject A,Distracted
0.003590024,2.042450353,0.212029649,-0.530706249,2.09794323,Subject A,Distracted
0.003614592,1.774606048,0.207319637,-1.849835566,1.957084949,Subject A,Distracted
0.003639109,1.572794538,0.213515805,-2.041665196,1.684843545,Subject A,Distracted
0.00366295,1.704923141,0.211378057,-0.783696266,1.417205578,Subject A,Distracted
0.003686247,1.913835481,0.188754824,0.377557777,1.234133753,Subject A,Distracted
0.00371024,1.754064239,0.138144482,0.047884037,1.157262403,Subject A,Distracted
0.00373584,1.198679353,0.065856611,-1.201088524,1.192416151,Subject A,Distracted
0.003761632,0.721846042,0.003813245,-1.605921205,1.308646795,Subject A,Distracted
0.003784575,0.74992463,-0.007673478,-0.557722349,1.408430021,Subject A,Distracted
0.003804339,1.166408429,0.038686927,0.594314788,1.396556498,Subject A,Distracted
0.003826125,1.474275067,0.104269274,0.359426337,1.290148691,Subject A,Distracted
0.003855467,1.395039548,0.145573675,-0.883202959,1.208957829,Subject A,Distracted
0.003888064,1.144565629,0.157397087,-1.373808201,1.239612511,Subject A,Distracted
0.003909401,1.058335005,0.159378039,-0.320003783,1.342417304,Subject A,Distracted
0.003913079,1.104438846,0.151939218,1.016186372,1.398043901,Subject A,Distracted
0.003920818,0.965930517,0.114567063,0.93978782,1.315460273,Subject A,Distracted
0.00397299,0.565403213,0.050607059,-0.466411716,1.094740959,Subject A,Distracted
0.004087654,0.255553725,0.004418833,-1.430336915,0.817824931,Subject A,Distracted
0.004231997,0.356735482,0.013833661,-0.776138654,0.586210972,Subject A,Distracted
0.004346096,0.671298058,0.059515085,0.557585073,0.454924804,Subject A,Distracted
0.004397135,0.690413511,0.084192793,0.76347574,0.431435473,Subject A,Distracted
0.004403169,0.268682146,0.060326559,-0.430084926,0.530689495,Subject A,Distracted
0.004404563,-0.139924469,0.018933035,-1.368788133,0.77682047,Subject A,Distracted
0.004423029,-0.050135908,0.005134628,-0.652176344,1.114095301,Subject A,Distracted
0.004452155,0.398332286,0.021785749,0.982785421,1.365719791,Subject A,Distracted
0.004477413,0.586290188,0.032807264,1.580589979,1.359649218,Subject A,Distracted
0.004494484,0.222682588,0.014799646,0.482678018,1.10514609,Subject A,Distracted
0.004508887,-0.242718349,-0.016268994,-0.871877255,0.798798258,Subject A,Distracted
0.004525806,-0.198556729,-0.035940468,-0.869773213,0.633389264,Subject A,Distracted
0.004544888,0.280557382,-0.047553319,0.223723232,0.613719362,Subject A,Distracted
0.004563076,0.476428279,-0.062886583,0.779928024,0.576076521,Subject A,Distracted
0.004578932,-0.009606795,-0.052000394,0.105863802,0.403393043,Subject A,Distracted
0.004593347,-0.618254442,0.050674519,-0.623776304,0.211945632,Subject A,Distracted
0.004607539,-0.456737634,0.261189365,-0.047825392,0.25106237,Subject A,Distracted
0.004621616,0.498101172,0.482660201,1.409199173,0.552351088,Subject A,Distracted
0.00463493,1.171349477,0.57076029,1.995876903,0.754414257,Subject A,Distracted
0.004647048,0.551849356,0.478857716,0.952406049,0.419545107,Subject A,Distracted
0.004658063,-1.13564819,0.309901352,-0.414007838,-0.484927321,Subject A,Distracted
0.004668229,-2.710047885,0.203097862,-0.373075944,-1.561182005,Subject A,Distracted
0.004677591,-3.405183463,0.19217624,0.996083175,-2.451657315,Subject A,Distracted
0.004686,-3.630483418,0.201789433,1.915866781,-3.191890108,Subject A,Distracted
0.004693318,-4.279464435,0.164226731,1.233077817,-4.035731586,Subject A,Distracted
0.004699521,-5.577225615,0.098899526,-0.080478877,-5.053941601,Subject A,Distracted
0.004704637,-6.897632139,0.069213474,-0.210679072,-6.032348571,Subject A,Distracted
0.004708658,-7.637265597,0.090771963,1.119567841,-6.743242776,Subject A,Distracted
0.00471153,-7.942305433,0.109392702,2.293242849,-7.203480801,Subject A,Distracted
0.004713193,-8.411255581,0.068820264,1.919172749,-7.610815826,Subject A,Distracted
0.00471361,-9.26524412,-0.018811455,0.631961891,-8.094896306,Subject A,Distracted
0.004712758,-10.09366675,-0.083771487,0.214782525,-8.634973143,Subject A,Distracted
0.004710612,-10.45121781,-0.079339897,1.228348963,-9.21504149,Subject A,Distracted
0.004707136,-10.4638381,-0.041722797,2.28807517,-9.922921689,Subject A,Distracted
0.004702292,-10.63395804,-0.057404086,1.926674574,-10.79037686,Subject A,Distracted
0.004696046,-11.13039997,-0.165495096,0.547971374,-11.60086246,Subject A,Distracted
0.004688373,-11.54625068,-0.302245435,-0.127144033,-12.01388024,Subject A,Distracted
0.004679246,-11.46882621,-0.359530567,0.631411516,-11.9274634,Subject A,Distracted
0.004668638,-11.07743157,-0.301916868,1.604003066,-11.61057307,Subject A,Distracted
0.004656525,-10.923465,-0.211197513,1.310784176,-11.3967256,Subject A,Distracted
0.00464288,-11.1758541,-0.202836107,0.071675027,-11.32068529,Subject A,Distracted
0.004627682,-11.36917159,-0.304610819,-0.37736176,-11.15288719,Subject A,Distracted
0.004610908,-10.99725468,-0.43233281,0.764896707,-10.73386493,Subject A,Distracted
0.004592538,-10.13611126,-0.486810631,2.208654536,-10.14321621,Subject A,Distracted
0.00457255,-9.290309491,-0.458539941,2.182827634,-9.542854805,Subject A,Distracted
0.004550925,-8.75047969,-0.423149265,0.680672732,-8.98320518,Subject A,Distracted
0.004527647,-8.334314962,-0.444743771,-0.593740704,-8.410126048,Subject A,Distracted
0.0045027,-7.748569317,-0.511086215,-0.425767664,-7.767714089,Subject A,Distracted
0.00447607,-6.990951322,-0.571462819,0.489215472,-7.030254685,Subject A,Distracted
0.004447745,-6.282422304,-0.609102835,0.677541884,-6.191261952,Subject A,Distracted
0.004417716,-5.701135464,-0.644213058,-0.065830806,-5.276082694,Subject A,Distracted
0.004385972,-5.043616978,-0.676237671,-0.476395391,-4.332861775,Subject A,Distracted
0.004352508,-4.110643349,-0.666686419,0.331907098,-3.387282386,Subject A,Distracted
0.004317319,-3.047194987,-0.597680425,1.527854048,-2.448750759,Subject A,Distracted
0.004280402,-2.249368301,-0.517550912,1.585240675,-1.574897302,Subject A,Distracted
0.004241756,-1.890522032,-0.495248823,0.331186566,-0.865268993,Subject A,Distracted
0.004201384,-1.675043288,-0.537854703,-0.725641749,-0.347202199,Subject A,Distracted
0.004159289,-1.201561776,-0.581950209,-0.295939598,0.087203645,Subject A,Distracted
0.004115477,-0.496311466,-0.568550422,1.006348585,0.577723709,Subject A,Distracted
0.004069958,0.026978683,-0.502653516,1.432508123,1.153703434,Subject A,Distracted
0.004022744,0.182303896,-0.42974932,0.381126283,1.738738357,Subject A,Distracted
0.003973848,0.368282191,-0.373214224,-0.783083033,2.26667793,Subject A,Distracted
0.003923286,1.117905148,-0.313802584,-0.503959033,2.729683405,Subject A,Distracted
0.003871076,2.383241299,-0.225758129,0.895342463,3.125647338,Subject A,Distracted
0.003817238,3.497435515,-0.117610374,1.61221455,3.431442182,Subject A,Distracted
0.003761796,3.898832314,-0.032495796,0.755691251,3.643183854,Subject A,Distracted
0.003704774,3.7340761,-0.010247424,-0.444887285,3.790877568,Subject A,Distracted
0.0036462,3.621922386,-0.046137844,-0.253024446,3.897225872,Subject A,Distracted
0.003586104,3.89927512,-0.085268586,1.263468829,3.962334229,Subject A,Distracted
0.003524517,4.284433494,-0.066774231,2.278004866,3.998267698,Subject A,Distracted
0.003461473,4.353129473,0.016997839,1.541995894,4.032722987,Subject A,Distracted
0.003397004,4.190453092,0.109437953,-0.027217972,4.055551792,Subject A,Distracted
0.003331145,4.335944946,0.146222631,-0.522374409,3.996675253,Subject A,Distracted
0.00326393,5.040424487,0.117999493,0.560160209,3.795825405,Subject A,Distracted
0.003195391,5.791853029,0.065894774,1.760747093,3.499312315,Subject A,Distracted
0.003125564,5.802874457,0.023011171,1.594663703,3.270812515,Subject A,Distracted
0.003054479,4.955546727,-0.014373284,0.453697671,3.271060665,Subject A,Distracted
0.002982172,4.057359763,-0.051344245,0.025337153,3.487717785,Subject A,Distracted
0.002908675,4.013052692,-0.059789124,1.048693716,3.6951121,Subject A,Distracted
0.002834021,4.814227561,-0.00928705,2.376124297,3.643816752,Subject A,Distracted
0.002758243,5.54566399,0.078000147,2.514361847,3.316006262,Subject A,Distracted
0.002681376,5.451254536,0.138886796,1.53798859,2.955759369,Subject A,Distracted
0.002603453,4.797830141,0.142326403,0.870957181,2.824782023,Subject A,Distracted
0.002524505,4.484407343,0.120511973,1.329188048,2.955767915,Subject A,Distracted
0.002444568,4.925816617,0.113959539,2.092733601,3.170364872,Subject A,Distracted
0.002363675,5.656620803,0.117293406,1.956810802,3.327992669,Subject A,Distracted
0.00228186,6.083026457,0.104776592,1.106528264,3.510712967,Subject A,Distracted
0.002199159,6.253415385,0.083643552,0.940670003,3.891944249,Subject A,Distracted
0.00211561,6.593094853,0.084397396,2.127044937,4.400129185,Subject A,Distracted
0.002031248,7.082011141,0.105830338,3.527357844,4.615055042,Subject A,Distracted
0.001946111,7.129084059,0.105383445,3.53409916,4.144660809,Subject A,Distracted
0.001860238,6.377129129,0.053532553,2.149287198,3.124200197,Subject A,Distracted
0.001773669,5.341145795,-0.024120565,1.077336357,2.212415711,Subject A,Distracted
0.001686442,4.942868326,-0.073937462,1.622001517,1.978616768,Subject A,Distracted
0.001598601,5.430408656,-0.073990884,3.036168654,2.325523678,Subject A,Distracted
0.001510185,6.033831988,-0.05240297,3.472388575,2.627324874,Subject A,Distracted
0.001421236,5.863646986,-0.047821969,2.366532624,2.446181182,Subject A,Distracted
0.001331798,4.990245078,-0.066009644,1.173301022,1.988856672,Subject A,Distracted
0.001241913,4.350611684,-0.082988433,1.453646,1.781908146,Subject A,Distracted
0.001151626,4.585545989,-0.082033084,2.809700107,1.999351717,Subject A,Distracted
0.001060981,5.275341372,-0.074073417,3.422992713,2.267689711,Subject A,Distracted
0.000970025,5.509329276,-0.079994978,2.492683267,2.152723364,Subject A,Distracted
0.000878804,5.002163189,-0.10238865,1.29961415,1.710430201,Subject A,Distracted
0.000787365,4.351019989,-0.121422397,1.466002733,1.42746183,Subject A,Distracted
0.000695754,4.240277435,-0.115638926,2.757102866,1.614920466,Subject A,Distracted
0.000604017,4.695879651,-0.083124653,3.363348734,1.998743126,Subject A,Distracted
0.000512202,5.223918128,-0.045653314,2.275687766,2.047699617,Subject A,Distracted
0.000420353,5.460145012,-0.035313032,0.625607003,1.652221529,Subject A,Distracted
0.000328518,5.474244853,-0.072012718,0.261110271,1.261730236,Subject A,Distracted
0.000236742,5.494038496,-0.148302438,1.428207479,1.277203209,Subject A,Distracted
0.00014507,5.535307334,-0.23830919,2.546467431,1.531214991,Subject A,Distracted
5.35e-05,5.411839812,-0.32346593,2.312712299,1.578343844,Subject A,Distracted
-3.78e-05,5.041302194,-0.402064467,1.332718718,1.3516826,Subject A,Distracted
-0.00012886,4.599230614,-0.466863557,1.150600233,1.218037533,Subject A,Distracted
-0.000219656,4.314406599,-0.483716934,2.062015546,1.375781592,Subject A,Distracted
-0.000310117,4.189923319,-0.414815,2.730843795,1.516106342,Subject A,Distracted
-0.000400198,4.032520981,-0.272517575,2.115443798,1.253172641,Subject A,Distracted
-0.000489852,3.751370443,-0.134733993,0.997826826,0.684020187,Subject A,Distracted
-0.000579031,3.492969523,-0.086460894,0.969250459,0.278203251,Subject A,Distracted
-0.000667688,3.388695051,-0.143088847,2.266587438,0.283621161,Subject A,Distracted
-0.000755775,3.30498928,-0.238760284,3.427965989,0.475319127,Subject A,Distracted
-0.000843244,3.069135208,-0.289191224,3.222186197,0.530385523,Subject A,Distracted
-0.000930044,2.879325262,-0.261133003,2.247021355,0.467015598,Subject A,Distracted
-0.001016125,3.143402119,-0.187106702,2.093829026,0.571453341,Subject A,Distracted
-0.001101436,3.799025157,-0.124304629,3.217933348,0.946495621,Subject A,Distracted
-0.001185925,4.146047423,-0.101008763,4.320108938,1.29741426,Subject A,Distracted
-0.00126954,3.662527799,-0.098413343,4.048824642,1.270570061,Subject A,Distracted
-0.001352229,2.788270249,-0.082519879,2.795979521,0.945910404,Subject A,Distracted
-0.001433942,2.502375455,-0.049578213,2.200061065,0.824147072,Subject A,Distracted
-0.001514628,3.098494599,-0.032913931,2.963610492,1.248400737,Subject A,Distracted
-0.001594237,3.714454079,-0.064951285,3.881710525,1.962552309,Subject A,Distracted
-0.00167272,3.302377043,-0.13948397,3.449120785,2.385575227,Subject A,Distracted
-0.001750027,1.928288286,-0.213210388,1.944233675,2.264768955,Subject A,Distracted
-0.001826112,0.813527519,-0.239956676,1.130548352,1.891088634,Subject A,Distracted
-0.001900927,0.995962741,-0.202851929,1.870193501,1.658059861,Subject A,Distracted
-0.001974423,2.163025946,-0.119241625,2.85933596,1.58165818,Subject A,Distracted
-0.002046554,3.027982,-0.0221521,2.305906301,1.378917312,Subject A,Distracted
-0.002117271,2.761321278,0.057425625,0.383044493,0.937697187,Subject A,Distracted
-0.002186528,1.761389211,0.093081378,-0.873573014,0.531204318,Subject A,Distracted
-0.002254279,0.967734603,0.064985314,-0.180510279,0.502065523,Subject A,Distracted
-0.002320477,0.731899271,-0.02201835,1.302717273,0.827403816,Subject A,Distracted
-0.002385079,0.63451906,-0.124017123,1.436567544,1.109280456,Subject A,Distracted
-0.002448038,0.261354329,-0.181563895,-0.205978877,0.995979414,Subject A,Distracted
-0.002509308,-0.220542222,-0.169620526,-1.880274823,0.533948128,Subject A,Distracted
-0.002568844,-0.379227249,-0.11986818,-1.931315594,0.068135447,Subject A,Distracted
-0.002626599,-0.17123243,-0.09024925,-0.802517526,-0.153092307,Subject A,Distracted
-0.002682523,-0.024103369,-0.116332037,-0.283201617,-0.203208986,Subject A,Distracted
-0.00273657,-0.282520336,-0.190171485,-1.101305202,-0.308889569,Subject A,Distracted
-0.00278869,-0.786121169,-0.274941573,-2.038628097,-0.535432588,Subject A,Distracted
-0.002838835,-1.11195303,-0.332221692,-1.66697995,-0.713317319,Subject A,Distracted
-0.002886957,-1.099181762,-0.338877488,-0.335281458,-0.661622916,Subject A,Distracted
-0.002933007,-0.949910046,-0.289932237,0.256920505,-0.408373331,Subject A,Distracted
-0.002976938,-0.860733114,-0.19916795,-0.681736004,-0.156985675,Subject A,Distracted
-0.003018703,-0.781582249,-0.1008084,-1.970310317,-0.076119667,Subject A,Distracted
-0.003058257,-0.620814108,-0.035781757,-2.013932765,-0.166777023,Subject A,Distracted
-0.003095553,-0.501371795,-0.016748515,-0.916258491,-0.325770493,Subject A,Distracted
-0.003130548,-0.613484971,-0.007478967,-0.324745196,-0.490454949,Subject A,Distracted
-0.003163199,-0.879382157,0.043267692,-1.192450999,-0.674085752,Subject A,Distracted
-0.003193466,-0.995469951,0.13712765,-2.440025218,-0.856612964,Subject A,Distracted
-0.003221308,-0.863677744,0.208090506,-2.34058785,-0.91739987,Subject A,Distracted
-0.003246686,-0.787120416,0.185690371,-0.824621423,-0.76896369,Subject A,Distracted
-0.003269564,-1.092914298,0.076499037,0.346381887,-0.524658652,Subject A,Distracted
-0.003289906,-1.67395359,-0.029832797,-0.209720896,-0.397035453,Subject A,Distracted
-0.003307679,-2.086817821,-0.045097619,-1.757327526,-0.412941573,Subject A,Distracted
-0.00332285,-2.088167225,0.027988003,-2.394675042,-0.381448911,Subject A,Distracted
-0.003335391,-1.913170845,0.09743857,-1.450735812,-0.202817934,Subject A,Distracted
-0.003345274,-1.957062244,0.076232415,-0.269977632,-0.046177595,Subject A,Distracted
-0.003352474,-2.276556772,-0.029254686,-0.410969807,-0.096417407,Subject A,Distracted
-0.003356967,-2.52207098,-0.128411543,-1.596145723,-0.252745931,Subject A,Distracted
-0.003358734,-2.377313172,-0.1387095,-2.086378997,-0.256925518,Subject A,Distracted
-0.003357758,-1.986341031,-0.062945349,-1.013672518,-0.074461511,Subject A,Distracted
-0.003354025,-1.855585289,0.021135354,0.410686875,0.02771441,Subject A,Distracted
-0.003347523,-2.308321512,0.039288971,0.467573077,-0.18480594,Subject A,Distracted
-0.003338243,-3.084377797,-0.011815019,-0.775268439,-0.620624147,Subject A,Distracted
-0.003326178,-3.543628789,-0.068352332,-1.520714628,-0.957902714,Subject A,Distracted
-0.003311323,-3.288914252,-0.064178036,-0.600335379,-0.970347293,Subject A,Distracted
-0.003293675,-2.559140744,0.009738946,0.987672577,-0.724855003,Subject A,Distracted
-0.003273234,-1.965091108,0.106889462,1.368059559,-0.505394411,Subject A,Distracted
-0.003249999,-1.855997209,0.176179174,0.183679071,-0.563202837,Subject A,Distracted
-0.003223974,-2.032585658,0.202349314,-1.001629604,-0.894649464,Subject A,Distracted
-0.003195164,-2.108160303,0.200328553,-0.73286684,-1.250328359,Subject A,Distracted
-0.003163574,-2.025791355,0.185660694,0.545186147,-1.402448294,Subject A,Distracted
-0.003129211,-2.075362412,0.159340485,1.194162911,-1.383656768,Subject A,Distracted
-0.003092084,-2.423518989,0.114851274,0.558655234,-1.38737697,Subject A,Distracted
