timestamps,TP9,AF7,AF8,TP10,Subject,Emotion
-0.008137937,-0.199139392,-0.110089218,0.046374845,-0.569351301,Subject C,Distracted
-0.008004092,-0.145260148,0.820867983,0.021501033,-0.443610014,Subject C,Distracted
-0.007868071,-0.240056518,0.802917419,-0.035692359,-0.447863065,Subject C,Distracted
-0.007729866,-0.366382683,-0.199287608,-0.086887134,-0.612188556,Subject C,Distracted
-0.007589474,-0.343519734,-0.957355437,-0.074020673,-0.711477931,Subject C,Distracted
-0.007446888,-0.180292414,-0.508889044,0.011614503,-0.538581275,Subject C,Distracted
-0.007302103,-0.082648806,0.631768742,0.104582135,-0.194972101,Subject C,Distracted
-0.007155113,-0.191662263,1.172318998,0.129195355,-0.014737936,Subject C,Distracted
-0.007005913,-0.390928114,0.726266407,0.083289561,-0.186744878,Subject C,Distracted
-0.006854497,-0.441937364,0.225460713,0.035689366,-0.521872829,Subject C,Distracted
-0.006700859,-0.276423856,0.540234097,0.038432436,-0.653882233,Subject C,Distracted
-0.006544994,-0.064186899,1.236098156,0.069018658,-0.448662033,Subject C,Distracted
-0.006386895,0.024096849,1.184968239,0.075353011,-0.139883461,Subject C,Distracted
-0.006226555,0.028532649,0.187364854,0.053942634,-0.032988784,Subject C,Distracted
-0.006063968,0.101052931,-0.630874808,0.051548421,-0.147191077,Subject C,Distracted
-0.005899128,0.250239666,-0.230140998,0.093317388,-0.233120431,Subject C,Distracted
-0.00573203,0.30399258,0.984839581,0.141723552,-0.110153952,Subject C,Distracted
-0.005562667,0.156531203,1.66565286,0.14297243,0.134540129,Subject C,Distracted
-0.005391037,-0.043935568,1.221216868,0.096170473,0.313811979,Subject C,Distracted
-0.005217134,-0.047917821,0.494452555,0.052890015,0.394041878,Subject C,Distracted
-0.005040955,0.187111155,0.570949365,0.049312907,0.486796733,Subject C,Distracted
-0.004862497,0.443116472,1.323520683,0.059260009,0.641183792,Subject C,Distracted
-0.004681754,0.512635267,1.602539948,0.028623633,0.757173636,Subject C,Distracted
-0.004498724,0.43330365,0.806537555,-0.049633738,0.727290221,Subject C,Distracted
-0.0043134,0.397072759,-0.242495778,-0.114127744,0.593236616,Subject C,Distracted
-0.004125779,0.487645706,-0.306642491,-0.101144499,0.505047243,Subject C,Distracted
-0.003935856,0.592480991,0.649198708,-0.022386572,0.54198114,Subject C,Distracted
-0.003743624,0.570550007,1.354451954,0.044631631,0.627891194,Subject C,Distracted
-0.003549075,0.435611402,0.842634206,0.047027928,0.643945605,Subject C,Distracted
-0.003352203,0.328869731,-0.296697887,0.01503044,0.582653834,Subject C,Distracted
-0.003153001,0.331315119,-0.678664113,0.013637689,0.535337635,Subject C,Distracted
-0.002951462,0.354324819,0.089480031,0.052241773,0.539373609,Subject C,Distracted
-0.002747578,0.246443506,0.941138389,0.071879915,0.515652164,Subject C,Distracted
-0.002541342,-0.005022023,0.776000813,0.024829619,0.398421736,Subject C,Distracted
-0.002332747,-0.220452941,-0.151300332,-0.060058091,0.269116271,Subject C,Distracted
-0.002121783,-0.204320821,-0.671891472,-0.109371329,0.281501698,Subject C,Distracted
-0.001908443,0.036047097,-0.284668223,-0.089795277,0.458964634,Subject C,Distracted
-0.001692717,0.280925899,0.247403768,-0.04038615,0.639434169,Subject C,Distracted
-0.001474597,0.318540129,0.015411793,-0.020589711,0.656427843,Subject C,Distracted
-0.001254074,0.151626138,-0.742674791,-0.043260992,0.527666626,Subject C,Distracted
-0.001031137,-0.036897405,-0.912236691,-0.070332768,0.408872614,Subject C,Distracted
-0.000805777,-0.104010476,0.004633436,-0.067884358,0.38128607,Subject C,Distracted
-0.000577984,-0.086059017,1.163404544,-0.048364752,0.357481591,Subject C,Distracted
-0.000347747,-0.103426337,1.42452607,-0.049340939,0.224069774,Subject C,Distracted
-0.000115056,-0.171636502,0.792787562,-0.081061084,0.024665564,Subject C,Distracted
0.0001201,-0.174320131,0.311900766,-0.11377509,-0.061978453,Subject C,Distracted
0.000357731,-0.037695759,0.578837314,-0.119906743,0.067793325,Subject C,Distracted
0.000597849,0.134164823,0.929228331,-0.111644406,0.293975572,Subject C,Distracted
0.000840467,0.169005431,0.413433045,-0.121490271,0.372349063,Subject C,Distracted
0.001085596,0.049297295,-0.771839693,-0.151336395,0.190167051,Subject C,Distracted
0.001333246,-0.063957566,-1.365845579,-0.161292367,-0.09921537,Subject C,Distracted
0.001583427,-0.054168123,-0.598367907,-0.119782144,-0.224191298,Subject C,Distracted
0.001836147,-0.009340665,0.786422328,-0.051096325,-0.076232622,Subject C,Distracted
0.002091416,-0.086092178,1.379331753,-0.011704231,0.190333705,Subject C,Distracted
0.002349243,-0.264714519,0.77219361,-0.019934888,0.358492763,Subject C,Distracted
0.00260963,-0.347511867,-0.042790103,-0.03232182,0.403339598,Subject C,Distracted
0.002872575,-0.216604504,0.005886472,-0.002734416,0.476043142,Subject C,Distracted
0.003138077,0.003529744,0.732618355,0.05168353,0.642163971,Subject C,Distracted
0.003406143,0.113422919,1.011740164,0.067815034,0.745357077,Subject C,Distracted
0.003676785,0.109270306,0.293772635,0.018444765,0.609045121,Subject C,Distracted
0.003949998,0.167243714,-0.645897787,-0.049068619,0.302109501,Subject C,Distracted
0.004225753,0.34447097,-0.70042145,-0.071268748,0.075842052,Subject C,Distracted
0.004504027,0.424982602,0.109808202,-0.047353859,0.040187084,Subject C,Distracted
0.004784837,0.172185852,0.629760247,-0.031480765,0.029389106,Subject C,Distracted
0.005068239,-0.323725882,0.070945375,-0.050556239,-0.15933106,Subject C,Distracted
0.005354233,-0.687732869,-0.925226205,-0.064976648,-0.488782555,Subject C,Distracted
0.005642704,-0.672691629,-1.086798955,-0.030148755,-0.729067087,Subject C,Distracted
0.005933523,-0.430349716,-0.150455484,0.028357574,-0.741146916,Subject C,Distracted
0.006226755,-0.308277552,0.807323509,0.036681188,-0.622568695,Subject C,Distracted
0.006522671,-0.433386179,0.751729588,-0.032445252,-0.550245455,Subject C,Distracted
0.006821382,-0.586752157,-0.06201913,-0.118891458,-0.545633705,Subject C,Distracted
0.007122469,-0.499345211,-0.55111242,-0.143803762,-0.471895546,Subject C,Distracted
0.007425297,-0.189245629,-0.25016934,-0.100038232,-0.257658112,Subject C,Distracted
0.007729988,0.066182461,0.184209944,-0.054063351,-0.036599007,Subject C,Distracted
0.00803777,0.062771498,-0.024761622,-0.063572335,-0.004279246,Subject C,Distracted
0.008349545,-0.115927183,-0.669370701,-0.112009077,-0.175797375,Subject C,Distracted
0.008663882,-0.240459119,-0.813236391,-0.132886192,-0.364300259,Subject C,Distracted
0.008977728,-0.219536122,-0.055399409,-0.092013588,-0.412865862,Subject C,Distracted
0.009290733,-0.174814452,0.87953005,-0.032163479,-0.383134165,Subject C,Distracted
0.009608078,-0.25065008,1.030584573,-0.026390421,-0.456038363,Subject C,Distracted
0.009935278,-0.41984809,0.405458877,-0.091506551,-0.666065281,Subject C,Distracted
0.010268007,-0.52023929,-0.103179448,-0.165142596,-0.812572233,Subject C,Distracted
0.010591724,-0.461902158,0.042319514,-0.176931425,-0.684631262,Subject C,Distracted
0.010900004,-0.338759032,0.334542293,-0.126944338,-0.338332141,Subject C,Distracted
0.011214541,-0.298854954,0.017094368,-0.074452081,-0.068859758,Subject C,Distracted
0.011575677,-0.337852151,-0.758670876,-0.056445306,-0.079054556,Subject C,Distracted
0.012001442,-0.297471769,-1.045849577,-0.045165265,-0.244782261,Subject C,Distracted
0.012458992,-0.092258439,-0.377039593,0.002470098,-0.285558411,Subject C,Distracted
0.012888372,0.138850239,0.503876951,0.075284413,-0.130662641,Subject C,Distracted
0.013256733,0.191384596,0.486984909,0.115142857,0.000916998,Subject C,Distracted
0.013582097,0.073661401,-0.495111861,0.092275174,-0.086400821,Subject C,Distracted
0.013904793,0.011431628,-1.292554703,0.046316353,-0.285268016,Subject C,Distracted
0.014246498,0.139421926,-0.898531393,0.036318867,-0.319350652,Subject C,Distracted
0.014600763,0.292468489,0.299053533,0.06630419,-0.104923313,Subject C,Distracted
0.014953022,0.207093163,0.956776278,0.0856479,0.144184947,Subject C,Distracted
0.015298917,-0.113060382,0.400060543,0.060935663,0.18888726,Subject C,Distracted
0.01564393,-0.361295378,-0.590918242,0.020050331,0.040668967,Subject C,Distracted
0.015993203,-0.284024484,-0.818888179,0.011145907,-0.095398434,Subject C,Distracted
0.016346343,0.031925275,-0.188417117,0.036901166,-0.093115432,Subject C,Distracted
0.01670025,0.29514266,0.258388693,0.054341432,-0.033569007,Subject C,Distracted
0.017053442,0.356176947,-0.189971295,0.036234864,-0.055521039,Subject C,Distracted
0.017406762,0.314289249,-0.927292874,0.006181006,-0.148784932,Subject C,Distracted
0.01776138,0.300807818,-0.866042568,0.000142433,-0.166592724,Subject C,Distracted
0.018117354,0.278934025,0.058154385,0.012060213,-0.037061306,Subject C,Distracted
0.018473982,0.129079653,0.789619344,0.003267991,0.120923087,Subject C,Distracted
0.018830775,-0.125896916,0.567339181,-0.036227795,0.147866584,Subject C,Distracted
0.01918777,-0.286808314,-0.122135102,-0.063759137,0.053725272,Subject C,Distracted
0.019545161,-0.199529425,-0.306595071,-0.03838852,-0.008863443,Subject C,Distracted
0.019902933,0.048152507,0.134191789,0.01631232,0.035638862,Subject C,Distracted
0.020260876,0.210941996,0.395257928,0.03135456,0.092021773,Subject C,Distracted
0.020618791,0.163050736,-0.033867757,-0.021562574,0.057396313,Subject C,Distracted
0.020976595,0.038120177,-0.577359037,-0.086192998,-0.001137763,Subject C,Distracted
0.021334253,0.056112952,-0.321004555,-0.084341797,0.078582627,Subject C,Distracted
0.021691698,0.243137161,0.678403593,-0.013901873,0.317038487,Subject C,Distracted
0.022048813,0.399206068,1.313615764,0.04220239,0.528726014,Subject C,Distracted
0.022405478,0.363959329,0.793729885,0.014066815,0.544930439,Subject C,Distracted
0.022761594,0.232867456,-0.289570651,-0.070590583,0.44016825,Subject C,Distracted
0.023117079,0.226973714,-0.661327193,-0.122516392,0.446976234,Subject C,Distracted
0.023471844,0.385160548,-0.001765956,-0.099775916,0.641873186,Subject C,Distracted
0.023825792,0.498104129,0.616910437,-0.048923838,0.801786424,Subject C,Distracted
0.024178823,0.375741244,0.135240988,-0.032537204,0.644329034,Subject C,Distracted
0.024530842,0.088009118,-1.044647382,-0.048244757,0.186906713,Subject C,Distracted
0.024881757,-0.130673059,-1.499864661,-0.046537795,-0.218588277,Subject C,Distracted
0.025231479,-0.165743274,-0.60218969,-0.011820032,-0.246808528,Subject C,Distracted
0.025579915,-0.124204501,0.648075589,0.013106862,0.057747465,Subject C,Distracted
0.025926972,-0.155037114,0.864485711,-0.009015741,0.353657578,Subject C,Distracted
0.026272559,-0.253596261,-0.031958803,-0.05285983,0.385386134,Subject C,Distracted
0.026616588,-0.303196297,-0.830839887,-0.06210524,0.217564872,Subject C,Distracted
0.026958972,-0.2713033,-0.628872196,-0.02557398,0.088348084,Subject C,Distracted
0.027299621,-0.269654998,0.108486239,0.005570222,0.119749686,Subject C,Distracted
0.027638451,-0.381708775,0.277927677,-0.017020559,0.236155764,Subject C,Distracted
0.027975376,-0.5045243,-0.422948146,-0.074952119,0.319666196,Subject C,Distracted
0.028310311,-0.462612383,-1.196841179,-0.102885604,0.346622545,Subject C,Distracted
0.02864317,-0.269004838,-1.25316925,-0.069675735,0.348684855,Subject C,Distracted
0.028973871,-0.156845931,-0.812883514,-0.018839761,0.316704268,Subject C,Distracted
0.029302327,-0.289248792,-0.726103597,-0.013527021,0.218855565,Subject C,Distracted
0.029628456,-0.518867255,-1.258367157,-0.053502622,0.101181038,Subject C,Distracted
0.029952174,-0.542035601,-1.692097126,-0.073715592,0.091805815,Subject C,Distracted
0.030273397,-0.274993865,-1.300086755,-0.030681158,0.251345314,Subject C,Distracted
0.030592042,0.025732168,-0.379538298,0.037223983,0.448808631,Subject C,Distracted
0.030908024,0.054843345,0.079198824,0.059363881,0.465139582,Subject C,Distracted
0.031221259,-0.198478108,-0.342544508,0.026524434,0.251187991,Subject C,Distracted
0.031531658,-0.464349605,-1.000277005,-0.000510931,0.02364019,Subject C,Distracted
0.031839136,-0.522288456,-1.091539124,0.021300703,0.032412932,Subject C,Distracted
0.032143606,-0.436181745,-0.689588411,0.057734159,0.249106403,Subject C,Distracted
0.032444979,-0.426577492,-0.544896661,0.048988693,0.373863762,Subject C,Distracted
0.03274317,-0.56847644,-1.000739648,-0.004096277,0.184582637,Subject C,Distracted
0.033038091,-0.704388534,-1.50314395,-0.043249635,-0.196148749,Subject C,Distracted
0.033329658,-0.669264578,-1.343645386,-0.038665913,-0.451779664,Subject C,Distracted
0.033617783,-0.520651574,-0.654557744,-0.033701083,-0.440493878,Subject C,Distracted
0.033902382,-0.472934472,-0.331077971,-0.084677672,-0.321092754,Subject C,Distracted
0.034183369,-0.624017235,-0.902905467,-0.177098283,-0.31778269,Subject C,Distracted
0.034460658,-0.823089744,-1.778669572,-0.230150793,-0.45157822,Subject C,Distracted
0.034734163,-0.844344611,-1.926068701,-0.186911027,-0.551445235,Subject C,Distracted
0.035003797,-0.653398775,-1.21029356,-0.081445105,-0.484375802,Subject C,Distracted
0.035269474,-0.443974489,-0.629474057,-0.003042123,-0.307908061,Subject C,Distracted
0.035531107,-0.406544988,-1.040901585,-0.000564501,-0.186864763,Subject C,Distracted
0.03578861,-0.518011605,-2.011780305,-0.038795247,-0.207680696,Subject C,Distracted
0.036041893,-0.603116565,-2.347987604,-0.052926801,-0.314676019,Subject C,Distracted
0.036290868,-0.564372102,-1.646836415,-0.028804392,-0.410633762,Subject C,Distracted
0.036535447,-0.473069344,-0.837538496,-0.011189245,-0.468170402,Subject C,Distracted
0.036775539,-0.424400426,-0.985052854,-0.037165304,-0.519516334,Subject C,Distracted
0.037011051,-0.387478242,-1.902865354,-0.083652239,-0.565703081,Subject C,Distracted
0.037241893,-0.276617523,-2.375167987,-0.09462088,-0.548856885,Subject C,Distracted
0.03746797,-0.142517402,-1.710925923,-0.051406311,-0.444465733,Subject C,Distracted
0.037689191,-0.182814916,-0.637186648,0.002211751,-0.349902726,Subject C,Distracted
0.037905461,-0.49553056,-0.393889814,0.010336121,-0.408189596,Subject C,Distracted
0.038116688,-0.873987223,-1.195425926,-0.030877259,-0.614482793,Subject C,Distracted
0.038322777,-0.951767809,-2.005099993,-0.071199016,-0.758508243,Subject C,Distracted
0.038523636,-0.584382904,-1.86249262,-0.066851743,-0.63388316,Subject C,Distracted
0.038719171,-0.02721159,-1.039211474,-0.029881509,-0.293749722,Subject C,Distracted
0.038909288,0.316897766,-0.579267196,-0.006788717,-0.022321157,Subject C,Distracted
0.039093897,0.298083181,-0.896017433,-0.014738633,-0.026233013,Subject C,Distracted
0.039272906,0.115866828,-1.286997903,-0.019358523,-0.216996709,Subject C,Distracted
0.039446223,0.033407563,-0.959917759,0.015069842,-0.348152071,Subject C,Distracted
0.039613757,0.078307322,-0.147978655,0.070489891,-0.312738839,Subject C,Distracted
0.039775417,0.078889963,0.184728697,0.091208779,-0.22045395,Subject C,Distracted
0.03993111,-0.052082029,-0.376553537,0.051432035,-0.198220237,Subject C,Distracted
0.040080746,-0.176328302,-1.16508534,-0.013973774,-0.219380293,Subject C,Distracted
0.040224231,-0.120110432,-1.336666507,-0.053267223,-0.181977594,Subject C,Distracted
0.040361477,0.060816765,-0.952773299,-0.05740203,-0.089979788,Subject C,Distracted
0.040492392,0.117759113,-0.782731364,-0.060315981,-0.062201712,Subject C,Distracted
0.040616887,-0.059346934,-1.147564833,-0.084423204,-0.152123241,Subject C,Distracted
0.040734874,-0.242990777,-1.440254149,-0.106128562,-0.232822557,Subject C,Distracted
0.040846266,-0.111503081,-1.017022564,-0.08743791,-0.123106344,Subject C,Distracted
0.040950975,0.329416039,-0.248923556,-0.030585412,0.181902248,Subject C,Distracted
0.041048914,0.694992622,-0.221830719,0.018680783,0.459465085,Subject C,Distracted
0.041139998,0.644231831,-1.329001397,0.024721298,0.475342323,Subject C,Distracted
0.041224141,0.265132905,-2.570937322,0.001479017,0.241285671,Subject C,Distracted
0.04130126,-0.048940612,-2.635262547,-0.013804056,0.013931579,Subject C,Distracted
0.041371271,-0.057830163,-1.532630958,-0.014489412,0.01344792,Subject C,Distracted
0.041434091,0.099823276,-0.663812314,-0.030034973,0.179985853,Subject C,Distracted
0.041489638,0.147289813,-1.095559608,-0.074096028,0.268379407,Subject C,Distracted
0.041537835,0.027862193,-2.205001406,-0.109036964,0.176038121,Subject C,Distracted
0.041578601,-0.06410991,-2.474579679,-0.084706693,0.088418439,Subject C,Distracted
0.041611863,0.029915071,-1.432539286,-0.008297178,0.238981602,Subject C,Distracted
0.041637544,0.23005895,-0.23546521,0.050522769,0.582566249,Subject C,Distracted
0.041655573,0.351162017,-0.191288696,0.037823992,0.813698781,Subject C,Distracted
0.041665878,0.3596292,-1.175745764,-0.018081058,0.720235192,Subject C,Distracted
0.04166839,0.389045542,-1.912685703,-0.040468288,0.422632822,Subject C,Distracted
0.04166304,0.503248984,-1.618237564,0.001043024,0.203029769,Subject C,Distracted
0.04164976,0.564075764,-0.869458405,0.055335479,0.166939189,Subject C,Distracted
0.041628484,0.423400242,-0.717314289,0.057743286,0.177119092,Subject C,Distracted
0.041599147,0.18250034,-1.320629957,0.01068158,0.107332483,Subject C,Distracted
0.041561685,0.116378785,-1.845001859,-0.025983958,0.037331038,Subject C,Distracted
0.041516035,0.309991395,-1.625909373,-0.015628714,0.121617589,Subject C,Distracted
0.041462137,0.503471041,-0.990738804,0.012212271,0.328865688,Subject C,Distracted
0.041399932,0.406836802,-0.69720475,0.007351742,0.422898467,Subject C,Distracted
0.041329361,0.089614811,-0.838002105,-0.034086403,0.228848451,Subject C,Distracted
0.041250368,-0.086411063,-0.745134644,-0.067644937,-0.144545116,Subject C,Distracted
0.0411629,0.08771706,-0.015859114,-0.058041393,-0.400137564,Subject C,Distracted
0.041066903,0.427385452,0.790882108,-0.017745646,-0.352970427,Subject C,Distracted
0.040962328,0.605223024,0.818183857,0.017615034,-0.093126503,Subject C,Distracted
0.040849127,0.534356266,0.091319257,0.036663906,0.152643847,Subject C,Distracted
0.040727253,0.404673396,-0.414029561,0.05850651,0.27400802,Subject C,Distracted
0.040596663,0.388330782,-0.003752578,0.094236298,0.349220156,Subject C,Distracted
0.040457316,0.43401928,0.80136378,0.121042839,0.481095639,Subject C,Distracted
0.040309172,0.391543204,0.915758437,0.108319758,0.632545131,Subject C,Distracted
0.040152196,0.255065653,0.121614941,0.062900619,0.682366557,Subject C,Distracted
0.039986353,0.186136335,-0.598858967,0.030259111,0.616536762,Subject C,Distracted
0.03981161,0.294738325,-0.298363927,0.043575675,0.574141761,Subject C,Distracted
0.039627936,0.476451908,0.726702916,0.083231285,0.66472388,Subject C,Distracted
0.039435303,0.526870218,1.318408648,0.100635615,0.80987226,Subject C,Distracted
0.039233685,0.396219692,0.917729536,0.078986944,0.844933385,Subject C,Distracted
0.039023058,0.259228289,0.205021807,0.053533024,0.742500188,Subject C,Distracted
0.038803401,0.295555446,0.122280566,0.062771691,0.634294465,Subject C,Distracted
0.038574695,0.446475814,0.594641573,0.091923179,0.601860436,Subject C,Distracted
0.038336922,0.470607575,0.648809257,0.085672918,0.548142911,Subject C,Distracted
0.038090065,0.25675906,-0.216131432,0.020544705,0.347117338,Subject C,Distracted
0.037834113,-0.000613805,-1.234270811,-0.055578572,0.069424592,Subject C,Distracted
0.037569053,-0.016685651,-1.277677149,-0.074244945,-0.038064379,Subject C,Distracted
0.037294877,0.229671346,-0.334220315,-0.028183088,0.174494157,Subject C,Distracted
0.03701158,0.463824333,0.39152195,0.020460496,0.564401388,Subject C,Distracted
0.036719158,0.459479616,-0.061526938,0.018032438,0.836638205,Subject C,Distracted
0.036417611,0.314570077,-1.240514694,-0.014900429,0.865795656,Subject C,Distracted
0.036106943,0.303366516,-1.864602985,-0.013989232,0.803956394,Subject C,Distracted
0.035787159,0.508625058,-1.393375028,0.040110459,0.843471845,Subject C,Distracted
0.035458266,0.717924683,-0.624269029,0.088704043,0.956503875,Subject C,Distracted
0.035120278,0.708917761,-0.641319359,0.065104268,0.962931611,Subject C,Distracted
0.034773208,0.534453865,-1.472612831,-0.01724005,0.820511895,Subject C,Distracted
0.034417073,0.428025958,-2.122378501,-0.074244026,0.711677804,Subject C,Distracted
0.034051895,0.467300489,-1.901498012,-0.052691908,0.78331828,Subject C,Distracted
0.033677696,0.461452826,-1.327190671,0.005027948,0.899720333,Subject C,Distracted
0.033294503,0.220472545,-1.39461015,0.018037565,0.778676817,Subject C,Distracted
0.032902344,-0.154774594,-2.170495776,-0.029384558,0.362183822,Subject C,Distracted
0.032501253,-0.353508558,-2.634117604,-0.073698725,-0.062994124,Subject C,Distracted
0.032091265,-0.219730995,-2.0478822,-0.061171874,-0.17092,Subject C,Distracted
0.031672419,0.047991919,-1.012417472,-0.017596301,0.038660689,Subject C,Distracted
0.031244756,0.12055308,-0.737787729,-0.009275597,0.259040512,Subject C,Distracted
0.030808322,-0.062983442,-1.492924659,-0.053852102,0.248557197,Subject C,Distracted
0.030363164,-0.207312982,-2.30938982,-0.10008087,0.098084684,Subject C,Distracted
0.029909331,-0.020842876,-2.29756425,-0.097159955,0.074743288,Subject C,Distracted
0.029446875,0.405567,-1.78029574,-0.056255995,0.254093528,Subject C,Distracted
0.028975851,0.691092987,-1.752055394,-0.02440496,0.416964844,Subject C,Distracted
0.028496317,0.620772664,-2.445378611,-0.013849268,0.34303102,Subject C,Distracted
0.028008336,0.371816671,-2.96251257,0.011440563,0.111815464,Subject C,Distracted
