timestamps,TP9,AF7,AF8,TP10,Subject,Emotion
-0.012267036,-0.145735774,-0.147972172,-0.812117438,-0.146969451,Subject A,Distracted
-0.012206581,-0.762467248,-0.189909632,-0.745392716,-0.333718526,Subject A,Distracted
-0.012143047,-0.781571682,-0.177357496,0.067937937,-0.375090813,Subject A,Distracted
-0.012076404,-0.354827705,-0.114636135,0.569235177,-0.237872903,Subject A,Distracted
-0.012006622,-0.059588766,-0.029909212,0.048633661,0.020587966,Subject A,Distracted
-0.011933673,-0.1729489,0.036980889,-0.875808389,0.318417115,Subject A,Distracted
-0.01185753,-0.372669358,0.056357029,-1.027468385,0.587651738,Subject A,Distracted
-0.011778166,-0.220764852,0.025714453,-0.181643928,0.761706625,Subject A,Distracted
-0.011695554,0.230010887,-0.032515115,0.657807929,0.781946686,Subject A,Distracted
-0.011609668,0.514556906,-0.088547975,0.532369853,0.661869664,Subject A,Distracted
-0.011520484,0.401853303,-0.122687226,-0.313490619,0.527891294,Subject A,Distracted
-0.011427977,0.22190949,-0.129823311,-0.810280195,0.537364807,Subject A,Distracted
-0.011332126,0.411075166,-0.112010707,-0.408578955,0.715552275,Subject A,Distracted
-0.011232908,0.877349301,-0.074287262,0.315451349,0.884596246,Subject A,Distracted
-0.011130303,1.0561415,-0.031517433,0.484971808,0.798051048,Subject A,Distracted
-0.011024292,0.61698998,-0.010376627,0.069737315,0.376071478,Subject A,Distracted
-0.010914857,-0.1045824,-0.031232582,-0.122185679,-0.209599465,Subject A,Distracted
-0.010801982,-0.538592523,-0.087287503,0.412328954,-0.723383791,Subject A,Distracted
-0.010685653,-0.621045883,-0.152647165,1.117740361,-1.134033004,Subject A,Distracted
-0.010565857,-0.86169292,-0.215926756,1.076672586,-1.637566769,Subject A,Distracted
-0.010442584,-1.64617095,-0.296038547,0.274841895,-2.385266354,Subject A,Distracted
-0.010315826,-2.708898621,-0.414245593,-0.300007415,-3.254662881,Subject A,Distracted
-0.010185579,-3.485552207,-0.556635589,0.064398421,-3.975993468,Subject A,Distracted
-0.01005184,-3.864814396,-0.679655419,0.845729951,-4.468787267,Subject A,Distracted
-0.009914607,-4.316039441,-0.754350391,0.959242646,-4.948913802,Subject A,Distracted
-0.009773883,-5.21063845,-0.790822285,0.176518861,-5.651731497,Subject A,Distracted
-0.00962967,-6.254312741,-0.814950719,-0.591169547,-6.518524216,Subject A,Distracted
-0.009481973,-6.823590641,-0.839825048,-0.492776711,-7.247413337,Subject A,Distracted
-0.0093308,-6.791180363,-0.873044108,0.182055294,-7.645570051,Subject A,Distracted
-0.009176159,-6.734920341,-0.930337179,0.439534404,-7.842498828,Subject A,Distracted
-0.009018062,-7.214393701,-1.011685479,-0.080467102,-8.112754412,Subject A,Distracted
-0.00885652,-8.051386788,-1.074785546,-0.64215188,-8.550828274,Subject A,Distracted
-0.008691549,-8.572140024,-1.073299159,-0.428669335,-9.001554088,Subject A,Distracted
-0.008523163,-8.492907419,-1.029046012,0.325236829,-9.294771609,Subject A,Distracted
-0.00835138,-8.269305522,-1.023981299,0.613873003,-9.455046511,Subject A,Distracted
-0.008176219,-8.460145576,-1.091213132,0.008278699,-9.639120106,Subject A,Distracted
-0.007997705,-8.982861321,-1.143840941,-0.731840017,-9.930479969,Subject A,Distracted
-0.007815862,-9.256997204,-1.057734286,-0.635373233,-10.26322803,Subject A,Distracted
-0.007630719,-9.012834498,-0.823379839,0.190921066,-10.52384428,Subject A,Distracted
-0.007442305,-8.661720885,-0.580282206,0.682511033,-10.66113142,Subject A,Distracted
-0.007250653,-8.739214894,-0.48752837,0.205467927,-10.68352209,Subject A,Distracted
-0.007055798,-9.167551761,-0.573805142,-0.61200638,-10.58665374,Subject A,Distracted
-0.006857777,-9.307086533,-0.718465074,-0.701128126,-10.31709109,Subject A,Distracted
-0.006656627,-8.733727843,-0.766343224,0.04810326,-9.823578446,Subject A,Distracted
-0.006452392,-7.750284278,-0.656843052,0.645688407,-9.141059379,Subject A,Distracted
-0.006245113,-6.988655477,-0.456990111,0.307806274,-8.389810811,Subject A,Distracted
-0.006034835,-6.622697123,-0.287863211,-0.50082242,-7.661404173,Subject A,Distracted
-0.005821604,-6.198836809,-0.222450015,-0.661446259,-6.925155065,Subject A,Distracted
-0.005605469,-5.281089582,-0.242669984,0.131332353,-6.081224802,Subject A,Distracted
-0.005386479,-4.052154746,-0.2795938,0.934747357,-5.096144502,Subject A,Distracted
-0.005164686,-3.085634288,-0.285376736,0.73090441,-4.054386506,Subject A,Distracted
-0.004940143,-2.600965505,-0.264977418,-0.28091312,-3.07568854,Subject A,Distracted
-0.004712904,-2.188398187,-0.245903305,-0.915612503,-2.207258095,Subject A,Distracted
-0.004483025,-1.365179891,-0.230927663,-0.46996748,-1.413773845,Subject A,Distracted
-0.004250563,-0.226787931,-0.191934548,0.426351833,-0.663536916,Subject A,Distracted
-0.004015577,0.666352312,-0.111336042,0.644695702,0.008933551,Subject A,Distracted
-0.003778127,1.014294487,-0.018565288,-0.012723276,0.555754258,Subject A,Distracted
-0.003538276,1.154991381,0.029882935,-0.632952978,1.017114218,Subject A,Distracted
-0.003296086,1.599884986,0.012714049,-0.451213594,1.51329007,Subject A,Distracted
-0.003051621,2.350499989,-0.023417801,0.157533388,2.099090563,Subject A,Distracted
-0.002804947,2.903041983,-0.00779009,0.258957119,2.661098085,Subject A,Distracted
-0.002556131,2.929883153,0.075370566,-0.328809765,3.022263051,Subject A,Distracted
-0.002305239,2.728181861,0.164578543,-0.802366522,3.149598209,Subject A,Distracted
-0.002052341,2.83838347,0.189154868,-0.520871781,3.198075327,Subject A,Distracted
-0.00179751,3.34341739,0.151275618,0.071538815,3.327542716,Subject A,Distracted
-0.001540818,3.782591198,0.121176212,0.051186755,3.53577429,Subject A,Distracted
-0.00128234,3.783161675,0.151900707,-0.65717774,3.71998939,Subject A,Distracted
-0.001022154,3.550043836,0.223255422,-1.077982381,3.853985689,Subject A,Distracted
-0.000760337,3.561467864,0.278628355,-0.469462883,4.018648654,Subject A,Distracted
-0.000496968,3.902034562,0.29111806,0.599097962,4.25204874,Subject A,Distracted
-0.000232127,4.147006097,0.272830674,0.879610106,4.45055659,Subject A,Distracted
3.41e-05,3.953788893,0.239277698,0.025150472,4.482261848,Subject A,Distracted
0.000301645,3.559232185,0.196916435,-0.944620076,4.374076942,Subject A,Distracted
0.00057041,3.505862232,0.163348678,-0.919257744,4.315990482,Subject A,Distracted
0.000840316,3.945229111,0.168273937,-0.074835471,4.452470276,Subject A,Distracted
0.001111276,4.431400026,0.217988646,0.407547528,4.710019941,Subject A,Distracted
0.001383201,4.482745449,0.274633049,-0.107127314,4.875920017,Subject A,Distracted
0.001656,4.183744205,0.289901061,-0.900448705,4.831848898,Subject A,Distracted
0.001929583,4.038316574,0.255926751,-0.865790071,4.657786663,Subject A,Distracted
0.002203856,4.270632101,0.210603405,0.034072252,4.500565951,Subject A,Distracted
0.002478724,4.512671549,0.195988086,0.720917795,4.402395289,Subject A,Distracted
0.002754093,4.309535354,0.222649861,0.400071549,4.306000957,Subject A,Distracted
0.003029864,3.765903499,0.271415977,-0.442583777,4.19228599,Subject A,Distracted
0.003305942,3.449149154,0.315558763,-0.718309931,4.137069294,Subject A,Distracted
0.003582227,3.658500449,0.337154392,-0.15474296,4.205305644,Subject A,Distracted
0.003858619,4.025931802,0.331402261,0.398379698,4.331243392,Subject A,Distracted
0.004135019,3.980162136,0.304110549,0.135672144,4.359642097,Subject A,Distracted
0.004411325,3.469060115,0.267373913,-0.620568568,4.216725242,Subject A,Distracted
0.004687435,3.005801064,0.236853362,-0.846186151,3.998420564,Subject A,Distracted
0.004963247,2.998119838,0.228428137,-0.19069884,3.852272841,Subject A,Distracted
0.005238655,3.245089016,0.248443069,0.526586088,3.797927163,Subject A,Distracted
0.005513556,3.23673603,0.282976987,0.390177747,3.72192195,Subject A,Distracted
0.005787844,2.831884865,0.302636312,-0.381937503,3.549419782,Subject A,Distracted
0.006061411,2.424218572,0.284563141,-0.71564801,3.350166009,Subject A,Distracted
0.006334151,2.405170585,0.228689435,-0.111257065,3.229255161,Subject A,Distracted
0.006605957,2.64128621,0.151837412,0.692330505,3.160061357,Subject A,Distracted
0.00687672,2.640642759,0.073948076,0.694461093,3.003623451,Subject A,Distracted
0.007146334,2.188061845,0.014738247,-0.078714096,2.702731624,Subject A,Distracted
0.00741469,1.637078228,-0.008095331,-0.660535904,2.393979213,Subject A,Distracted
0.007681682,1.488830306,0.007378821,-0.418380038,2.278202278,Subject A,Distracted
0.007947201,1.788777991,0.037366501,0.190522731,2.39703187,Subject A,Distracted
0.008211141,2.092143956,0.048066626,0.316404735,2.58218698,Subject A,Distracted
0.008473393,2.019781387,0.024091444,-0.131328944,2.632382794,Subject A,Distracted
0.008733849,1.689057576,-0.021374657,-0.423080458,2.50536815,Subject A,Distracted
0.008992403,1.496533389,-0.059335207,-0.082205124,2.314213122,Subject A,Distracted
0.009248945,1.576222482,-0.063314665,0.400911661,2.163859491,Subject A,Distracted
0.009503369,1.653852581,-0.025931411,0.227371229,2.041484048,Subject A,Distracted
0.009755567,1.469698558,0.029347002,-0.547849074,1.878635156,Subject A,Distracted
0.010005433,1.180500014,0.059443562,-0.974691055,1.67619448,Subject A,Distracted
0.010252859,1.173016793,0.042472758,-0.447152654,1.513761888,Subject A,Distracted
0.01049774,1.511470762,0.009255353,0.403520902,1.430298647,Subject A,Distracted
0.010739972,1.766965825,0.018652985,0.44067831,1.345847492,Subject A,Distracted
0.010979451,1.511715059,0.092776548,-0.482626921,1.153499514,Subject A,Distracted
0.011216076,0.874297475,0.185013554,-1.235838581,0.882243215,Subject A,Distracted
0.011449746,0.422795416,0.222476288,-0.795573827,0.708753711,Subject A,Distracted
0.011680365,0.49229091,0.178827156,0.443632723,0.76981433,Subject A,Distracted
0.011907835,0.807629027,0.098822032,1.12981427,0.994732845,Subject A,Distracted
0.012132063,0.880063631,0.051484339,0.593501322,1.171069281,Subject A,Distracted
0.012352957,0.643049196,0.065383496,-0.410429243,1.16389418,Subject A,Distracted
0.012570429,0.488185497,0.111760178,-0.717280554,1.023720566,Subject A,Distracted
0.012784392,0.684183774,0.143973884,-0.167169094,0.88376966,Subject A,Distracted
0.012994762,0.993151707,0.143045416,0.321136129,0.810355766,Subject A,Distracted
0.013201458,1.006519725,0.121807994,-0.000125847,0.780720662,Subject A,Distracted
0.013404401,0.724025357,0.096165922,-0.764358728,0.763627942,Subject A,Distracted
0.013603515,0.569100752,0.068111203,-1.016173328,0.766484659,Subject A,Distracted
0.013798724,0.807542495,0.03549906,-0.479744585,0.797741237,Subject A,Distracted
0.013989956,1.152705254,0.001056151,0.090528718,0.819515858,Subject A,Distracted
0.014177142,1.107005513,-0.033289361,-0.070810041,0.773303794,Subject A,Distracted
0.014360213,0.614042357,-0.066518968,-0.711121232,0.659775824,Subject A,Distracted
0.014539105,0.160518896,-0.08822482,-0.902773697,0.570419974,Subject A,Distracted
0.014713756,0.16699142,-0.08330297,-0.295939796,0.608799781,Subject A,Distracted
0.014884105,0.451453421,-0.053683726,0.411627082,0.770639449,Subject A,Distracted
0.015050097,0.479171541,-0.022755368,0.40415683,0.922714307,Subject A,Distracted
0.015211676,0.076686344,-0.011539461,-0.200467862,0.923396335,Subject A,Distracted
0.01536879,-0.341426419,-0.020490779,-0.575343297,0.757203534,Subject A,Distracted
0.015521391,-0.338604644,-0.038953175,-0.328030583,0.528880448,Subject A,Distracted
0.015669437,-0.051837835,-0.059927285,0.011532206,0.334642062,Subject A,Distracted
0.01581289,-0.006874371,-0.077269072,-0.195392006,0.181335075,Subject A,Distracted
0.01595171,-0.394205997,-0.079268429,-0.7230802,0.046754138,Subject A,Distracted
0.016085858,-0.785837477,-0.05831207,-0.722828886,-0.029848929,Subject A,Distracted
0.0162153,-0.694714579,-0.024135103,0.096367497,0.021498526,Subject A,Distracted
0.016340016,-0.242729389,0.001865513,0.940871222,0.183095308,Subject A,Distracted
0.016459996,-0.03395713,0.004904632,0.840796962,0.321901058,Subject A,Distracted
0.016575218,-0.371799866,-0.014615674,-0.118230086,0.32130288,Subject A,Distracted
0.01668564,-0.836964893,-0.044393397,-0.836654788,0.22047173,Subject A,Distracted
0.01679123,-0.792226081,-0.064014216,-0.526997656,0.177436248,Subject A,Distracted
0.016892007,-0.181199834,-0.052389438,0.320857516,0.282924265,Subject A,Distracted
0.016988027,0.398542833,-0.005349101,0.578610732,0.447548212,Subject A,Distracted
0.017079298,0.435028451,0.052698257,-0.063975192,0.509036672,Subject A,Distracted
0.017165719,0.097611198,0.082172695,-0.706544615,0.431215869,Subject A,Distracted
0.01724718,-0.059206562,0.055769828,-0.444216129,0.340887883,Subject A,Distracted
0.017323768,0.148796468,-0.024406325,0.414164326,0.35740904,Subject A,Distracted
0.01739578,0.335536428,-0.125232848,0.753597775,0.445754783,Subject A,Distracted
0.01746336,0.135183443,-0.193253134,0.150441619,0.484735943,Subject A,Distracted
0.017526125,-0.249885195,-0.182959806,-0.555335752,0.439177136,Subject A,Distracted
0.017583483,-0.297275632,-0.094317871,-0.382063475,0.388104367,Subject A,Distracted
0.017635602,0.12726443,0.0165121,0.480580045,0.38115859,Subject A,Distracted
0.017683761,0.559317887,0.077625343,0.903942948,0.347776704,Subject A,Distracted
0.017728919,0.517347491,0.06253007,0.284402948,0.201827858,Subject A,Distracted
0.017769705,0.117683694,0.009362198,-0.66333852,-0.009236074,Subject A,Distracted
0.017803133,-0.086300942,-0.023482431,-0.804523231,-0.137210734,Subject A,Distracted
0.017828925,0.166938331,-0.014549491,-0.026626953,-0.118755806,Subject A,Distracted
0.017852337,0.50490042,0.012676948,0.629291787,-0.063817186,Subject A,Distracted
0.017878964,0.414775166,0.028696059,0.329411492,-0.124217524,Subject A,Distracted
0.017904567,-0.071043113,0.030772733,-0.473489871,-0.310316698,Subject A,Distracted
0.017914694,-0.393039622,0.038833489,-0.667803462,-0.480795523,Subject A,Distracted
0.017903014,-0.169662599,0.071035392,0.028353741,-0.504504902,Subject A,Distracted
0.017891319,0.315298198,0.12570754,0.713007268,-0.395888755,Subject A,Distracted
0.017920053,0.469243837,0.17986425,0.518290637,-0.280124554,Subject A,Distracted
0.018007352,0.135126265,0.204492334,-0.274496054,-0.249460167,Subject A,Distracted
0.018120478,-0.227607641,0.18818451,-0.686647259,-0.282768584,Subject A,Distracted
0.018199589,-0.148661661,0.147629448,-0.369034758,-0.306160063,Subject A,Distracted
0.018211949,0.251903289,0.111628887,0.009538676,-0.299082592,Subject A,Distracted
0.018175695,0.445932978,0.096522867,-0.224899819,-0.306426071,Subject A,Distracted
0.018131274,0.212053982,0.09991317,-0.776792014,-0.348305481,Subject A,Distracted
0.01810048,-0.073813372,0.111245385,-0.780377482,-0.357557519,Subject A,Distracted
0.018076988,0.032901097,0.119240243,-0.018907671,-0.244566642,Subject A,Distracted
0.018046354,0.410319458,0.113049482,0.696307258,-0.018823362,Subject A,Distracted
0.018004347,0.508680408,0.088014706,0.526927098,0.198289306,Subject A,Distracted
0.01795657,0.10599088,0.052312268,-0.29939849,0.307715332,Subject A,Distracted
0.017908294,-0.342140485,0.020814356,-0.737726659,0.344958662,Subject A,Distracted
0.017859252,-0.273365683,0.001025203,-0.234423947,0.405714873,Subject A,Distracted
0.017806474,0.22225822,-0.010406997,0.568584171,0.471239922,Subject A,Distracted
0.017748606,0.483083294,-0.019348197,0.660434933,0.385761337,Subject A,Distracted
0.017686624,0.123550162,-0.028058039,-0.027702549,0.056872775,Subject A,Distracted
0.017621828,-0.451257794,-0.03280025,-0.543325832,-0.365091886,Subject A,Distracted
0.01755441,-0.531270066,-0.020204828,-0.187668716,-0.58594416,Subject A,Distracted
0.017483803,0.03798257,0.02582148,0.549001542,-0.462752602,Subject A,Distracted
0.017409655,0.691597807,0.100908982,0.659246603,-0.152508883,Subject A,Distracted
0.017332142,0.838181483,0.170502756,-0.001418694,0.063866654,Subject A,Distracted
0.017251597,0.519949453,0.198044882,-0.500491467,0.072313192,Subject A,Distracted
0.017168144,0.254706749,0.180954661,-0.080652436,-0.000581997,Subject A,Distracted
0.017081714,0.33135218,0.149177974,0.80637598,0.020429018,Subject A,Distracted
0.01699225,0.485191283,0.131303305,1.064977818,0.161238377,Subject A,Distracted
0.016899806,0.329875785,0.128984062,0.359630387,0.313985973,Subject A,Distracted
0.016804492,-0.076072197,0.121527461,-0.480242962,0.400364674,Subject A,Distracted
0.01670638,-0.287614968,0.092021019,-0.538286472,0.461232106,Subject A,Distracted
0.016605497,-0.057195897,0.051782015,0.063273493,0.574810023,Subject A,Distracted
0.016501863,0.339440771,0.036440566,0.420519163,0.721675343,Subject A,Distracted
0.016395523,0.453109854,0.068899664,0.081498918,0.775609507,Subject A,Distracted
0.016286536,0.215540419,0.128217948,-0.390490469,0.645077706,Subject A,Distracted
0.016174956,-0.016298034,0.168461953,-0.233067862,0.394025762,Subject A,Distracted
0.016060827,0.046019733,0.170306538,0.450516379,0.180134469,Subject A,Distracted
0.015944188,0.256850959,0.159070119,0.808454528,0.08261547,Subject A,Distracted
0.015825084,0.267919742,0.163842708,0.367582817,0.047418508,Subject A,Distracted
0.015703561,0.023169291,0.172700295,-0.334148451,0.015426429,Subject A,Distracted
0.015579668,-0.157483923,0.146046902,-0.434605912,0.030658868,Subject A,Distracted
0.015453445,-0.024351578,0.072985956,0.157727233,0.151100072,Subject A,Distracted
0.015324935,0.223028832,-0.001208772,0.681555203,0.289604468,Subject A,Distracted
0.015194174,0.159924402,-0.012549264,0.534579722,0.248906425,Subject A,Distracted
0.015061203,-0.284483888,0.060991202,0.040453901,-0.045128747,Subject A,Distracted
0.014926056,-0.651672157,0.180542417,-0.030247844,-0.410561787,Subject A,Distracted
0.014788767,-0.477990271,0.28266227,0.460381956,-0.579054498,Subject A,Distracted
0.014649368,0.094836901,0.326271573,0.791395551,-0.486181542,Subject A,Distracted
0.014507886,0.421284118,0.306590722,0.358096893,-0.338272333,Subject A,Distracted
0.014364346,0.10243922,0.239669422,-0.423320758,-0.376889395,Subject A,Distracted
0.014218774,-0.534816921,0.148401781,-0.548316206,-0.611881069,Subject A,Distracted
0.014071191,-0.847507608,0.062110832,0.269843207,-0.816896353,Subject A,Distracted
0.013921617,-0.650679911,0.015333069,1.118776265,-0.780813435,Subject A,Distracted
0.013770068,-0.35706833,0.031895959,0.953804983,-0.534926098,Subject A,Distracted
0.01361656,-0.349435715,0.101296255,-0.0814201,-0.312853313,Subject A,Distracted
0.013461104,-0.481233547,0.173547054,-0.789108973,-0.295779293,Subject A,Distracted
0.013303711,-0.371939375,0.191015322,-0.391446793,-0.434635927,Subject A,Distracted
0.01314439,-0.029802884,0.13430386,0.518012512,-0.550441414,Subject A,Distracted
0.012983148,0.103741631,0.03236229,0.769118208,-0.572371454,Subject A,Distracted
0.01281999,-0.237263498,-0.073582923,0.119864468,-0.596431141,Subject A,Distracted
0.012654923,-0.723236108,-0.162404979,-0.492252816,-0.697948197,Subject A,Distracted
0.012487951,-0.796569806,-0.223793808,-0.254011048,-0.786280837,Subject A,Distracted
0.012319076,-0.373901591,-0.239135547,0.424787055,-0.728493372,Subject A,Distracted
0.012148302,0.025461577,-0.19921324,0.48772229,-0.563736364,Subject A,Distracted
0.01197563,-0.097625104,-0.137050534,-0.300594451,-0.488152166,Subject A,Distracted
0.011801062,-0.626250146,-0.114186559,-0.978501007,-0.619707024,Subject A,Distracted
0.011624597,-0.985813459,-0.160401075,-0.62778826,-0.849153618,Subject A,Distracted
0.011446235,-0.823819623,-0.240515933,0.408436897,-0.943216267,Subject A,Distracted
0.011265979,-0.36227015,-0.291572268,0.95177719,-0.757854815,Subject A,Distracted
0.011083827,-0.049986452,-0.282011188,0.500125915,-0.356784486,Subject A,Distracted
0.01089978,-0.030867005,-0.22564753,-0.172597888,0.026969456,Subject A,Distracted
0.01071384,-0.101492635,-0.153226096,-0.09942532,0.140870567,Subject A,Distracted
0.010526007,-0.126474782,-0.089815225,0.590870855,-0.120232403,Subject A,Distracted
0.010336282,-0.281390643,-0.054368354,0.899042629,-0.652176171,Subject A,Distracted
0.010144667,-0.772255679,-0.059582826,0.347018558,-1.231670609,Subject A,Distracted
0.009951165,-1.43402346,-0.10140962,-0.370345716,-1.658732651,Subject A,Distracted
0.009755777,-1.813234965,-0.153244931,-0.344025979,-1.832552748,Subject A,Distracted
0.009558508,-1.697122296,-0.178758404,0.302282226,-1.764012056,Subject A,Distracted
0.009359362,-1.407840696,-0.158739112,0.587779851,-1.569207123,Subject A,Distracted
0.009158344,-1.426559328,-0.111291026,0.050026388,-1.408839248,Subject A,Distracted
0.008955457,-1.783946323,-0.08161033,-0.553746617,-1.355255084,Subject A,Distracted
0.008750707,-2.010856045,-0.100564038,-0.217592367,-1.3181302,Subject A,Distracted
0.0085441,-1.748617235,-0.149722331,0.925110674,-1.165752625,Subject A,Distracted
0.00833564,-1.234138316,-0.175308459,1.655693305,-0.928510006,Subject A,Distracted
0.008125336,-1.004526108,-0.142732366,1.156936563,-0.802541512,Subject A,Distracted
0.007913195,-1.197411123,-0.073095233,0.045214328,-0.901864118,Subject A,Distracted
0.007699224,-1.379894358,-0.020955619,-0.3827827,-1.072104828,Subject A,Distracted
0.007483433,-1.14056581,-0.020783893,0.24885099,-1.042104009,Subject A,Distracted
0.007265831,-0.653729995,-0.062502775,0.974794766,-0.750094995,Subject A,Distracted
0.00704643,-0.455671929,-0.114715021,0.783638343,-0.429754818,Subject A,Distracted
